# Best-fit normalized data and profile from VoigtFit
# column 1 : Wavelength
# column 2 : Normalized flux
# column 3 : Normalized error
# column 4 : Best-fit profile
# column 5 : Pixel mask, 1=included, 0=excluded
1154.891   0.7044   0.1953   0.9952   1
1154.951   0.6792   0.1945   0.9926   1
1155.010   0.7527   0.1983   0.9917   1
1155.070   0.8135   0.2010   0.9914   1
1155.130   0.7950   0.2007   0.9913   1
1155.190   0.8123   0.2020   0.9912   1
1155.250   0.8563   0.2039   0.9912   1
1155.310   0.7903   0.1981   0.9911   1
1155.369   0.9222   0.2044   0.9911   1
1155.429   0.7400   0.1944   0.9911   1
1155.489   0.8610   0.2008   0.9910   1
1155.549   0.7534   0.1941   0.9910   1
1155.609   0.8432   0.1993   0.9910   1
1155.668   0.4791   0.1756   0.9910   1
1155.728   0.5993   0.1840   0.9910   1
1155.788   0.7188   0.1924   0.9909   1
1155.848   0.7180   0.1915   0.9909   1
1155.908   0.6108   0.1847   0.9909   0
1155.968   0.7599   0.1947   0.9909   0
1156.027   0.5946   0.1837   0.9909   0
1156.087   0.5803   0.1830   0.9909   0
1156.147   0.6102   0.1846   0.9908   0
1156.207   0.8048   0.1959   0.9908   0
1156.267   0.7445   0.1926   0.9908   0
1156.327   0.5039   0.1766   0.9908   0
1156.386   0.7579   0.1934   0.9908   0
1156.446   0.7269   0.1914   0.9907   0
1156.506   0.5915   0.1816   0.9907   0
1156.566   0.7844   0.1942   0.9907   0
1156.626   0.6195   0.1839   0.9907   0
1156.685   0.5446   0.1786   0.9907   0
1156.745   0.6932   0.1893   0.9907   0
1156.805   0.7754   0.1941   0.9906   0
1156.865   0.5623   0.1815   0.9906   0
1156.925   0.6067   0.1854   0.9906   0
1156.984   0.6869   0.1908   0.9906   0
1157.044   0.6941   0.1901   0.9906   0
1157.104   0.7397   0.1932   0.9905   0
1157.164   0.7416   0.1935   0.9905   0
1157.224   0.7569   0.1949   0.9905   0
1157.284   0.6731   0.1870   0.9905   0
1157.343   0.7331   0.1900   0.9905   0
1157.403   0.6882   0.1864   0.9904   0
1157.463   0.7028   0.1879   0.9904   0
1157.523   0.5555   0.1783   0.9904   0
1157.583   0.7191   0.1888   0.9904   0
1157.643   0.8659   0.1982   0.9904   0
1157.702   0.6299   0.1837   0.9904   0
1157.762   0.6291   0.1827   0.9903   0
1157.822   0.7607   0.1912   0.9903   0
1157.882   0.6573   0.1847   0.9903   0
1157.942   0.7301   0.1896   0.9903   0
1158.001   0.4944   0.1731   0.9903   0
1158.061   0.5837   0.2081   0.9902   0
1158.121   0.6813   0.2146   0.9902   0
1158.181   0.8568   0.2270   0.9902   0
1158.241   0.7386   0.2190   0.9902   0
1158.301   0.7382   0.2192   0.9902   0
1158.360   0.5812   0.2068   0.9901   0
1158.420   0.6778   0.1883   0.9901   0
1158.480   0.8864   0.1984   0.9901   0
1158.540   0.7397   0.1897   0.9901   0
1158.600   0.8560   0.1956   0.9901   0
1158.659   0.7537   0.1896   0.9900   0
1158.719   0.7827   0.1915   0.9900   0
1158.779   0.6079   0.1799   0.9900   0
1158.839   0.8237   0.1935   0.9900   0
1158.899   0.6788   0.1847   0.9900   0
1158.959   0.6199   0.1814   0.9899   0
1159.018   0.8079   0.1923   0.9899   0
1159.078   0.6482   0.1823   0.9899   0
1159.138   0.6476   0.1826   0.9899   0
1159.198   0.6759   0.1844   0.9899   0
1159.258   0.8344   0.1938   0.9898   0
1159.318   0.9782   0.2011   0.9898   0
1159.377   0.8765   0.1960   0.9898   0
1159.437   0.5879   0.1782   0.9898   0
1159.497   0.5289   0.1741   0.9897   0
1159.557   0.6864   0.1840   0.9897   0
1159.617   0.6565   0.1818   0.9897   0
1159.676   0.5406   0.1743   0.9897   0
1159.736   0.7423   0.1880   0.9897   0
1159.796   0.6266   0.1802   0.9896   0
1159.856   0.6852   0.1840   0.9896   0
1159.916   0.6558   0.1830   0.9896   0
1159.975   0.4454   0.1692   0.9896   0
1160.035   0.6187   0.1830   0.9896   0
1160.095   0.5680   0.1786   0.9895   0
1160.155   0.5106   0.1610   0.9895   0
1160.215   0.7337   0.1913   0.9895   0
1160.275   0.7228   0.1908   0.9895   0
1160.334   0.7161   0.1891   0.9894   0
1160.394   0.6878   0.1855   0.9894   0
1160.454   0.4793   0.1718   0.9894   0
1160.514   0.8438   0.1956   0.9894   0
1160.574   0.4910   0.1726   0.9894   0
1160.634   0.8396   0.1939   0.9893   0
1160.693   0.6770   0.1825   0.9893   0
1160.753   0.8391   0.1919   0.9893   0
1160.813   0.9537   0.1982   0.9893   0
1160.873   0.7532   0.1864   0.9892   0
1160.933   0.6956   0.1829   0.9892   0
1160.992   1.1223   0.2074   0.9892   0
1161.052   0.8228   0.1904   0.9892   0
1161.112   0.7385   0.2144   0.9892   0
1161.172   0.7953   0.2192   0.9891   0
1161.232   0.8330   0.2213   0.9891   0
1161.292   0.9834   0.2297   0.9891   0
1161.351   0.8693   0.2232   0.9891   0
1161.411   0.9448   0.2289   0.9890   0
1161.471   0.7898   0.1983   0.9890   0
1161.531   0.6182   0.1772   0.9890   0
1161.591   0.7027   0.1833   0.9890   0
1161.651   0.7727   0.1871   0.9889   0
1161.710   0.7726   0.1870   0.9889   0
1161.770   0.6172   0.1775   0.9889   0
1161.830   0.7881   0.1884   0.9889   0
1161.890   0.8159   0.1897   0.9888   0
1161.950   0.7729   0.1858   0.9888   0
1162.009   0.8024   0.1886   0.9888   0
1162.069   0.6884   0.1822   0.9888   0
1162.129   0.8289   0.1900   0.9887   0
1162.189   0.7573   0.1855   0.9887   0
1162.249   0.6588   0.1800   0.9887   0
1162.308   0.7993   0.1882   0.9887   0
1162.368   0.7145   0.1824   0.9886   0
1162.428   0.7701   0.1857   0.9886   0
1162.488   0.7130   0.1830   0.9886   0
1162.548   0.8810   0.1928   0.9886   0
1162.608   0.7116   0.1826   0.9886   0
1162.667   0.7399   0.1839   0.9885   0
1162.727   0.9370   0.1961   0.9885   0
1162.787   0.7260   0.1830   0.9885   0
1162.847   0.6416   0.1781   0.9884   0
1162.907   0.9366   0.1958   0.9884   0
1162.967   0.8241   0.1890   0.9884   0
1163.026   0.6679   0.1791   0.9884   0
1163.086   0.8541   0.2047   0.9883   0
1163.146   0.7044   0.2097   0.9883   0
1163.206   0.5923   0.2020   0.9883   0
1163.266   0.8179   0.2199   0.9883   0
1163.325   0.6517   0.2087   0.9882   0
1163.385   0.8710   0.2256   0.9882   0
1163.445   0.7525   0.2126   0.9882   0
1163.505   0.6120   0.1779   0.9882   0
1163.565   0.8356   0.1918   0.9881   0
1163.625   0.5814   0.1756   0.9881   0
1163.684   0.6623   0.1803   0.9881   0
1163.744   0.5927   0.1752   0.9881   0
1163.804   0.7338   0.1817   0.9880   0
1163.864   0.7754   0.1857   0.9880   0
1163.924   0.7882   0.1860   0.9880   0
1163.984   0.8985   0.1918   0.9880   0
1164.043   0.6755   0.1783   0.9879   0
1164.103   0.7162   0.1816   0.9879   0
1164.163   0.5641   0.1721   0.9879   0
1164.223   0.7588   0.1827   0.9878   0
1164.283   0.7860   0.1856   0.9878   0
1164.342   0.7304   0.1821   0.9878   0
1164.402   0.7293   0.1823   0.9878   0
1164.462   0.8244   0.1869   0.9877   0
1164.522   0.5884   0.1734   0.9877   0
1164.582   0.6991   0.1789   0.9877   0
1164.641   0.7679   0.1839   0.9877   0
1164.701   0.4779   0.1657   0.9876   0
1164.761   0.8527   0.1889   0.9876   0
1164.821   0.7691   0.1838   0.9876   0
1164.881   0.5056   0.1668   0.9875   0
1164.941   0.6443   0.1762   0.9875   0
1165.000   0.9053   0.1919   0.9875   0
1165.060   0.7810   0.1845   0.9875   0
1165.120   0.9342   0.1935   0.9874   0
1165.180   0.8332   0.1872   0.9874   0
1165.240   0.6402   0.1759   0.9874   0
1165.300   0.7884   0.1865   0.9873   0
1165.359   0.9635   0.1974   0.9873   0
1165.419   0.6280   0.1769   0.9873   1
1165.479   0.9750   0.1975   0.9873   1
1165.539   0.8778   0.1922   0.9872   1
1165.599   0.7776   0.1862   0.9872   1
1165.658   0.8389   0.1891   0.9872   1
1165.718   0.7841   0.1854   0.9871   1
1165.778   0.9577   0.1931   0.9871   1
1165.838   0.8020   0.1847   0.9871   1
1165.898   0.9662   0.1935   0.9870   1
1165.958   1.1173   0.2018   0.9870   1
1166.017   0.8857   0.1895   0.9870   1
1166.077   0.7886   0.1836   0.9870   1
1166.137   0.8428   0.1866   0.9869   1
1166.197   1.1243   0.2331   0.9869   1
1166.257   0.8874   0.2186   0.9869   1
1166.316   0.7953   0.2119   0.9868   1
1166.376   0.8477   0.2135   0.9868   1
1166.436   1.0296   0.2269   0.9868   1
1166.496   0.6842   0.2048   0.9867   1
1166.556   0.7577   0.1894   0.9867   1
1166.616   0.9759   0.1933   0.9867   1
1166.675   0.9073   0.1898   0.9866   1
1166.735   0.8935   0.1887   0.9866   0
1166.795   0.8122   0.1843   0.9866   0
1166.855   0.7435   0.1804   0.9865   0
1166.915   0.7830   0.1827   0.9865   0
1166.974   0.6328   0.1729   0.9865   0
1167.034   0.6867   0.1766   0.9865   0
1167.094   0.6735   0.1754   0.9864   0
1167.154   0.7535   0.1807   0.9864   0
1167.214   0.7537   0.1801   0.9864   0
1167.274   0.7941   0.1827   0.9863   0
1167.333   0.7935   0.1820   0.9863   0
1167.393   0.8071   0.1831   0.9863   0
1167.453   0.6990   0.1770   0.9862   0
1167.513   0.8881   0.1874   0.9862   0
1167.573   0.7115   0.1772   0.9862   0
1167.632   0.6174   0.1718   0.9861   0
1167.692   0.6975   0.1768   0.9861   0
1167.752   0.6967   0.1762   0.9861   0
1167.812   0.6427   0.1730   0.9860   0
1167.872   0.5884   0.1697   0.9860   0
1167.932   0.6825   0.1761   0.9860   0
1167.991   0.7485   0.1791   0.9859   0
1168.051   0.5457   0.1666   0.9859   0
1168.111   0.6263   0.1715   0.9859   0
1168.171   0.6388   0.1721   0.9858   0
1168.231   0.4780   0.1616   0.9858   0
1168.291   0.8141   0.1825   0.9857   0
1168.350   0.7433   0.1800   0.9857   0
1168.410   0.5561   0.1690   0.9857   0
1168.470   0.6562   0.1761   0.9856   0
1168.530   0.7990   0.1841   0.9856   0
1168.590   0.6937   0.1793   0.9856   0
1168.649   0.4991   0.1672   0.9855   0
1168.709   0.7096   0.1810   0.9855   0
1168.769   0.6441   0.1765   0.9855   0
1168.829   0.6414   0.1750   0.9854   0
1168.889   0.6012   0.1715   0.9854   0
1168.948   0.6142   0.1720   0.9854   0
1169.008   0.6826   0.1755   0.9853   0
1169.068   0.8552   0.1859   0.9853   0
1169.128   0.8163   0.1822   0.9853   0
1169.188   0.8100   0.1820   0.9852   0
1169.248   0.6485   0.1718   0.9852   0
1169.307   0.7013   0.1751   0.9851   0
1169.367   0.6348   0.1706   0.9851   0
1169.427   0.8081   0.1814   0.9851   0
1169.487   0.6895   0.1744   0.9850   0
1169.547   0.7424   0.1773   0.9850   0
1169.607   0.5292   0.1645   0.9850   0
1169.666   0.8880   0.1854   0.9849   0
1169.726   0.6344   0.1707   0.9849   0
1169.786   0.6207   0.1693   0.9848   0
1169.846   0.6724   0.1735   0.9848   0
1169.906   0.7111   0.1758   0.9848   0
1169.965   0.8700   0.1839   0.9847   0
1170.025   0.6585   0.1719   0.9847   0
1170.085   0.7914   0.1794   0.9846   0
1170.145   0.7785   0.1788   0.9846   0
1170.205   0.7119   0.1753   0.9846   0
1170.265   0.5523   0.1657   0.9845   0
1170.324   0.8954   0.1855   0.9845   0
1170.384   0.7361   0.1764   0.9845   0
1170.444   0.7880   0.1792   0.9844   0
1170.504   0.8258   0.1811   0.9844   0
1170.564   0.5887   0.1674   0.9843   0
1170.624   0.6674   0.1717   0.9843   0
1170.683   0.6135   0.1684   0.9843   0
1170.743   0.7578   0.1771   0.9842   0
1170.803   0.5727   0.1649   0.9842   0
1170.863   0.7832   0.1787   0.9841   0
1170.923   0.5855   0.1663   0.9841   0
1170.982   0.6776   0.1724   0.9841   0
1171.042   0.7296   0.1752   0.9840   0
1171.102   0.6498   0.1703   0.9840   0
1171.162   0.5445   0.1639   0.9839   0
1171.222   0.6369   0.1690   0.9839   0
1171.281   0.4795   0.1596   0.9838   0
1171.341   0.6623   0.1712   0.9838   0
1171.401   0.6493   0.1695   0.9838   0
1171.461   0.5705   0.1654   0.9837   0
1171.521   0.5445   0.1633   0.9837   0
1171.581   0.5718   0.1651   0.9836   0
1171.640   0.5301   0.1634   0.9836   0
1171.700   0.5278   0.1635   0.9835   0
1171.760   0.5474   0.1660   0.9835   0
1171.820   0.5496   0.1661   0.9835   0
1171.880   0.5466   0.1654   0.9834   0
1171.940   0.4918   0.1624   0.9834   0
1171.999   0.7536   0.1785   0.9833   0
1172.059   0.5176   0.1640   0.9833   0
1172.119   0.5339   0.1641   0.9832   0
1172.179   0.6026   0.1675   0.9832   0
1172.239   0.5438   0.1634   0.9832   0
1172.298   0.6099   0.1678   0.9831   0
1172.358   0.5048   0.1608   0.9831   0
1172.418   0.5581   0.1644   0.9830   0
1172.478   0.6107   0.1678   0.9830   0
1172.538   0.7012   0.1732   0.9829   0
1172.598   0.7144   0.1740   0.9829   0
1172.657   0.4392   0.1567   0.9828   0
1172.717   0.4643   0.1579   0.9828   0
1172.777   0.6474   0.1696   0.9827   0
1172.837   0.5954   0.1667   0.9827   0
1172.897   0.5690   0.1652   0.9827   0
1172.956   0.4906   0.1591   0.9826   0
1173.016   0.5034   0.1609   0.9826   0
1173.076   0.6080   0.1679   0.9825   0
1173.136   0.4383   0.1564   0.9825   0
1173.196   0.7395   0.1756   0.9824   0
1173.256   0.4522   0.1574   0.9824   0
1173.315   0.4912   0.1602   0.9823   0
1173.375   0.5297   0.1626   0.9823   0
1173.435   0.7526   0.1765   0.9822   0
1173.495   0.5174   0.1624   0.9822   0
1173.555   0.4646   0.1579   0.9821   0
1173.615   0.6831   0.1722   0.9821   0
1173.674   0.7009   0.1754   0.9820   0
1173.734   0.6305   0.1719   0.9820   0
1173.794   0.7163   0.1767   0.9819   0
1173.854   0.5508   0.1667   0.9819   0
1173.914   0.5076   0.1634   0.9818   0
1173.973   0.5603   0.1665   0.9818   0
1174.033   0.5025   0.1630   0.9817   0
1174.093   0.5797   0.1683   0.9817   0
1174.153   0.5273   0.1633   0.9816   0
1174.213   0.4685   0.1588   0.9816   0
1174.272   0.4933   0.1606   0.9815   0
1174.332   0.4674   0.1589   0.9815   0
1174.392   0.3365   0.1495   0.9814   0
1174.452   0.4410   0.1568   0.9814   0
1174.512   0.5194   0.1617   0.9813   0
1174.572   0.4009   0.1538   0.9813   0
1174.631   0.3611   0.1513   0.9812   0
1174.691   0.5056   0.1615   0.9812   0
1174.751   0.3745   0.1523   0.9811   0
1174.811   0.3867   0.1534   0.9811   0
1174.871   0.4132   0.1556   0.9810   0
1174.931   0.4533   0.1584   0.9810   0
1174.990   0.4150   0.1557   0.9809   0
1175.050   0.4429   0.1576   0.9808   0
1175.110   0.3642   0.1521   0.9808   0
1175.170   0.3242   0.1488   0.9807   0
1175.230   0.2316   0.1420   0.9807   0
1175.289   0.4822   0.1603   0.9806   0
1175.349   0.4295   0.1565   0.9806   0
1175.409   0.4294   0.1569   0.9805   0
1175.469   0.4299   0.1563   0.9805   0
1175.529   0.4564   0.1586   0.9804   0
1175.589   0.4171   0.1557   0.9803   0
1175.648   0.4955   0.1614   0.9803   0
1175.708   0.4294   0.1571   0.9802   0
1175.768   0.5217   0.1636   0.9802   0
1175.828   0.3503   0.1514   0.9801   0
1175.888   0.4429   0.1581   0.9801   0
1175.948   0.3243   0.1491   0.9800   0
1176.007   0.2047   0.1399   0.9799   0
1176.067   0.4428   0.1582   0.9799   0
1176.127   0.3773   0.1539   0.9798   0
1176.187   0.3121   0.1489   0.9798   0
1176.247   0.3915   0.1550   0.9797   0
1176.306   0.2203   0.1417   0.9797   0
1176.366   0.2601   0.1453   0.9796   0
1176.426   0.2349   0.1433   0.9795   0
1176.486   0.2881   0.1477   0.9795   0
1176.546   0.2345   0.1432   0.9794   0
1176.605   0.3013   0.1481   0.9794   0
1176.665   0.3014   0.1478   0.9793   0
1176.725   0.2519   0.1451   0.9792   0
1176.785   0.1743   0.1392   0.9792   0
1176.845   0.1764   0.1396   0.9791   0
1176.905   0.2473   0.1457   0.9791   0
1176.964   0.2216   0.1439   0.9790   0
1177.024   0.1566   0.1385   0.9789   0
1177.084   0.3062   0.1523   0.9789   0
1177.144   0.1576   0.1392   0.9788   0
1177.204   0.1808   0.1407   0.9787   0
1177.264   0.2187   0.1436   0.9787   0
1177.323   0.2161   0.1436   0.9786   0
1177.383   0.1045   0.1336   0.9785   0
1177.443   0.2123   0.1429   0.9785   0
1177.503   0.2227   0.1431   0.9784   0
1177.563   0.1926   0.1403   0.9784   0
1177.622   0.1125   0.1338   0.9783   0
1177.682   0.2206   0.1431   0.9782   0
1177.742   0.2459   0.1344   0.9782   0
1177.802   0.2345   0.1445   0.9781   0
1177.862   0.2209   0.1431   0.9780   0
1177.922   0.2071   0.1420   0.9780   0
1177.981   0.1805   0.1402   0.9779   0
1178.041   0.3015   0.1499   0.9778   0
1178.101   0.3154   0.1508   0.9778   0
1178.161   0.2891   0.1490   0.9777   0
1178.221   0.3424   0.1533   0.9776   0
1178.280   0.3294   0.1520   0.9776   0
1178.340   0.2896   0.1489   0.9775   0
1178.400   0.2759   0.1480   0.9774   0
1178.460   0.3298   0.1527   0.9773   0
1178.520   0.3704   0.1554   0.9773   0
1178.580   0.3839   0.1565   0.9772   0
1178.639   0.3025   0.1506   0.9771   0
1178.699   0.3832   0.1569   0.9771   0
1178.759   0.4104   0.1585   0.9770   0
1178.819   0.4246   0.1598   0.9769   0
1178.879   0.3577   0.1551   0.9769   0
1178.938   0.5333   0.1672   0.9768   0
1178.998   0.4935   0.1646   0.9767   0
1179.058   0.5597   0.1689   0.9766   0
1179.118   0.4919   0.1641   0.9766   0
1179.178   0.5725   0.1693   0.9765   0
1179.238   0.6536   0.1750   0.9764   0
1179.297   0.6529   0.1744   0.9763   0
1179.357   0.7203   0.1788   0.9763   0
1179.417   0.5606   0.1685   0.9762   0
1179.477   0.6139   0.1716   0.9761   0
1179.537   0.6001   0.1710   0.9760   0
1179.596   0.6275   0.1729   0.9760   0
1179.656   0.6006   0.1715   0.9759   0
1179.716   0.8684   0.1866   0.9758   0
1179.776   0.6803   0.1759   0.9757   0
1179.836   0.7337   0.1789   0.9757   0
1179.896   0.7865   0.1827   0.9756   0
1179.955   0.7592   0.1808   0.9755   0
1180.015   0.6453   0.1736   0.9754   0
1180.075   0.7605   0.1827   0.9753   0
1180.135   0.7443   0.1817   0.9753   0
1180.195   0.7586   0.1832   0.9752   0
1180.255   0.6257   0.1744   0.9751   0
1180.314   0.8043   0.1853   0.9750   0
1180.374   0.7322   0.1806   0.9749   0
1180.434   0.7857   0.1838   0.9749   0
1180.494   0.7637   0.1820   0.9748   0
1180.554   0.7534   0.1802   0.9747   0
1180.613   0.9146   0.1889   0.9746   0
1180.673   0.7539   0.1792   0.9745   0
1180.733   0.5670   0.1677   0.9745   0
1180.793   0.6722   0.1744   0.9744   0
1180.853   0.7249   0.1778   0.9743   0
1180.912   0.5518   0.1664   0.9742   0
1180.972   0.7778   0.1800   0.9741   0
1181.032   0.6448   0.1730   0.9740   0
1181.092   0.5651   0.1671   0.9739   0
1181.152   0.6184   0.1714   0.9739   0
1181.212   0.6586   0.1732   0.9738   0
1181.271   0.7119   0.1762   0.9737   0
1181.331   0.6595   0.1731   0.9736   0
1181.391   0.7257   0.1772   0.9735   0
1181.451   0.7922   0.1808   0.9734   0
1181.511   0.8973   0.1868   0.9733   0
1181.571   0.8039   0.1818   0.9733   0
1181.630   0.8166   0.1824   0.9732   0
1181.690   0.8557   0.1842   0.9731   0
1181.750   0.8552   0.1846   0.9730   0
1181.810   0.7237   0.1762   0.9729   0
1181.870   0.8819   0.1848   0.9728   0
1181.929   0.7626   0.1787   0.9727   0
1181.989   0.7651   0.1792   0.9726   0
1182.049   0.7950   0.1819   0.9725   0
1182.109   0.7840   0.1823   0.9724   0
1182.169   0.9706   0.1929   0.9723   0
1182.229   0.7421   0.1796   0.9722   0
1182.288   0.6275   0.1725   0.9721   0
1182.348   0.6931   0.1762   0.9721   0
1182.408   0.5663   0.1679   0.9720   0
1182.468   0.7944   0.1815   0.9719   0
1182.528   0.7029   0.1746   0.9718   0
1182.588   0.6516   0.1708   0.9717   0
1182.647   0.6364   0.1699   0.9716   0
1182.707   0.7534   0.1767   0.9715   0
1182.767   0.6083   0.1681   0.9714   0
1182.827   0.8570   0.1825   0.9713   0
1182.887   0.8302   0.1813   0.9712   0
1182.946   0.6716   0.1722   0.9711   0
1183.006   0.9066   0.1845   0.9710   0
1183.066   0.7106   0.1739   0.9709   0
1183.126   1.0091   0.1899   0.9708   1
1183.186   1.0732   0.1938   0.9707   1
1183.245   0.7995   0.1784   0.9706   1
1183.305   0.7081   0.1737   0.9705   1
1183.365   1.1103   0.1950   0.9704   1
1183.425   0.7602   0.1759   0.9703   1
1183.485   0.8893   0.1832   0.9702   1
1183.545   1.0176   0.1900   0.9700   1
1183.604   0.6668   0.1702   0.9699   1
1183.664   0.8219   0.1794   0.9698   1
1183.724   0.7169   0.1727   0.9697   1
1183.784   0.6777   0.1705   0.9696   1
1183.844   0.8975   0.1832   0.9695   1
1183.904   1.0019   0.1884   0.9694   1
1183.963   0.7544   0.1750   0.9693   1
1184.023   0.7152   0.1730   0.9692   1
1184.083   0.7278   0.1728   0.9691   1
1184.143   0.7402   0.1736   0.9690   1
1184.203   0.6361   0.1675   0.9689   0
1184.262   0.6875   0.1706   0.9687   0
1184.322   0.8815   0.1818   0.9686   0
1184.382   0.6603   0.1688   0.9685   0
1184.442   0.6983   0.1706   0.9684   0
1184.502   0.9027   0.1825   0.9683   0
1184.562   0.8507   0.1789   0.9682   0
1184.621   0.6318   0.1664   0.9681   0
1184.681   0.8228   0.1781   0.9679   0
1184.741   0.7331   0.1723   0.9678   0
1184.801   0.8338   0.1780   0.9677   0
1184.861   0.6028   0.1642   0.9676   0
1184.920   0.5637   0.1617   0.9675   0
1184.980   0.5376   0.1596   0.9673   0
1185.040   0.5621   0.1612   0.9672   0
1185.100   0.4927   0.1567   0.9671   0
1185.160   0.4797   0.1572   0.9670   0
1185.220   0.5943   0.1651   0.9669   0
1185.279   0.5537   0.1622   0.9667   0
1185.339   0.4033   0.1508   0.9666   0
1185.399   0.4066   0.1516   0.9665   0
1185.459   0.6199   0.1668   0.9664   0
1185.519   0.5543   0.1629   0.9662   0
1185.578   0.6424   0.1680   0.9661   0
1185.638   0.4209   0.1527   0.9660   0
1185.698   0.6904   0.1694   0.9659   0
1185.758   1.0066   0.1877   0.9657   0
1185.818   0.7889   0.1754   0.9656   0
1185.878   0.5157   0.1573   0.9655   0
1185.937   0.7941   0.1731   0.9653   0
1185.997   0.6809   0.1667   0.9652   0
1186.057   0.5300   0.1575   0.9651   0
1186.117   0.5661   0.1592   0.9649   0
1186.177   0.7266   0.1687   0.9648   0
1186.236   0.6645   0.1652   0.9647   0
1186.296   0.6633   0.1650   0.9645   0
1186.356   0.5498   0.1580   0.9644   0
1186.416   0.6237   0.1624   0.9643   0
1186.476   0.6854   0.1657   0.9641   0
1186.536   0.4613   0.1518   0.9640   0
1186.595   0.4360   0.1502   0.9638   0
1186.655   0.5480   0.1571   0.9637   0
1186.715   0.5971   0.1603   0.9636   0
1186.775   0.5595   0.1576   0.9634   0
1186.835   0.4847   0.1527   0.9633   0
1186.895   0.4850   0.1525   0.9631   0
1186.954   0.6080   0.1602   0.9630   0
1187.014   0.6325   0.1622   0.9628   0
1187.074   0.6437   0.1626   0.9627   0
1187.134   0.7678   0.1696   0.9626   0
1187.194   0.7553   0.1686   0.9624   0
1187.253   0.7294   0.1674   0.9623   0
1187.313   0.6314   0.1608   0.9621   0
1187.373   0.7421   0.1678   0.9620   0
1187.433   0.8155   0.1715   0.9618   0
1187.493   0.7165   0.1660   0.9617   0
1187.552   0.7413   0.1681   0.9615   0
1187.612   0.7275   0.1667   0.9613   0
1187.672   0.7511   0.1681   0.9612   0
1187.732   0.8721   0.1741   0.9610   0
1187.792   0.7991   0.1706   0.9609   0
1187.852   0.8231   0.1717   0.9607   0
1187.911   0.6023   0.1588   0.9606   0
1187.971   0.8823   0.1747   0.9604   0
1188.031   0.6138   0.1593   0.9602   0
1188.091   0.7716   0.1685   0.9601   0
1188.151   0.7466   0.1668   0.9599   0
1188.211   0.5889   0.1574   0.9598   0
1188.270   0.4415   0.1486   0.9596   0
1188.330   0.6956   0.1636   0.9594   0
1188.390   0.5132   0.1526   0.9593   0
1188.450   0.6870   0.1635   0.9591   0
1188.510   0.7938   0.1702   0.9589   0
1188.569   0.7007   0.1660   0.9588   0
1188.629   0.8258   0.1726   0.9586   0
1188.689   0.7374   0.1676   0.9584   0
1188.749   0.4835   0.1521   0.9582   0
1188.809   0.7138   0.1668   0.9581   0
1188.869   0.8001   0.1711   0.9579   0
1188.928   0.8841   0.1748   0.9577   0
1188.988   0.8369   0.1711   0.9575   0
1189.048   0.7392   0.1657   0.9574   0
1189.108   0.7995   0.1686   0.9572   0
1189.168   0.7869   0.1681   0.9570   0
1189.228   0.9076   0.1747   0.9568   0
1189.287   1.0405   0.1809   0.9566   0
1189.347   0.9916   0.1781   0.9564   0
1189.407   0.8462   0.1710   0.9563   0
1189.467   0.9536   0.1767   0.9561   0
1189.527   0.6895   0.1626   0.9559   0
1189.586   0.8232   0.1696   0.9557   0
1189.646   0.7630   0.1661   0.9555   0
1189.706   0.6672   0.1613   0.9553   0
1189.766   0.6169   0.1575   0.9551   0
1189.826   0.6163   0.1574   0.9549   0
1189.885   0.6162   0.1570   0.9547   0
1189.945   0.4721   0.1484   0.9545   0
1190.005   0.4716   0.1485   0.9543   0
1190.065   0.4715   0.1478   0.9541   0
1190.125   0.3034   0.1362   0.9539   0
1190.185   0.2197   0.1298   0.9537   0
1190.244   0.1361   0.1227   0.9535   0
1190.304   0.1359   0.1228   0.9533   0
1190.364   0.1239   0.1217   0.9531   0
1190.424   0.1123   0.1206   0.9529   0
1190.484   0.1521   0.1245   0.9527   0
1190.544   0.2411   0.1323   0.9525   0
1190.603   0.2179   0.1301   0.9523   0
1190.663   0.2537   0.1330   0.9521   0
1190.723   0.3051   0.1372   0.9519   0
1190.783   0.3170   0.1381   0.9516   0
1190.843   0.5796   0.1560   0.9514   0
1190.902   0.4366   0.1463   0.9512   0
1190.962   0.4617   0.1472   0.9510   0
1191.022   0.4453   0.1454   0.9508   0
1191.082   0.3742   0.1402   0.9506   0
1191.142   0.5047   0.1489   0.9503   0
1191.202   0.5285   0.1510   0.9501   0
1191.261   0.3867   0.1414   0.9499   0
1191.321   0.5758   0.1532   0.9496   0
1191.381   0.4928   0.1479   0.9494   0
1191.441   0.4928   0.1480   0.9492   0
1191.501   0.6339   0.1561   0.9490   0
1191.560   0.4803   0.1470   0.9487   0
1191.620   0.5978   0.1546   0.9485   0
1191.680   0.7038   0.1608   0.9482   0
1191.740   0.5621   0.1522   0.9480   0
1191.800   0.5264   0.1500   0.9478   0
1191.860   0.5143   0.1490   0.9475   0
1191.919   0.5374   0.1500   0.9473   0
1191.979   0.4666   0.1461   0.9470   0
1192.039   0.3605   0.1387   0.9468   0
1192.099   0.2189   0.1280   0.9465   0
1192.159   0.2414   0.1294   0.9463   0
1192.219   0.1000   0.1177   0.9460   0
1192.278   0.0881   0.1167   0.9458   0
1192.338   0.0763   0.1153   0.9455   0
1192.398   0.0408   0.1121   0.9453   0
1192.458   -0.0064   0.1075   0.9450   0
1192.518   0.0521   0.1131   0.9447   0
1192.577   0.0518   0.1131   0.9445   0
1192.637   0.0753   0.1152   0.9442   0
1192.697   0.0400   0.1118   0.9439   0
1192.757   0.1210   0.1190   0.9437   0
1192.817   0.1212   0.1188   0.9434   0
1192.876   0.2259   0.1278   0.9431   0
1192.936   0.1795   0.1239   0.9428   0
1192.996   0.1911   0.1246   0.9426   0
1193.056   0.1679   0.1227   0.9423   0
1193.116   0.1100   0.1177   0.9420   0
1193.176   0.0869   0.1157   0.9417   0
1193.235   0.1215   0.1186   0.9414   0
1193.295   0.1213   0.1188   0.9411   0
1193.355   0.1561   0.1216   0.9409   0
1193.415   0.1564   0.1215   0.9406   0
1193.475   0.0522   0.1123   0.9403   0
1193.535   0.1345   0.1196   0.9400   0
1193.594   0.2809   0.1319   0.9397   0
1193.654   0.4908   0.1474   0.9394   0
1193.714   0.4419   0.1440   0.9391   0
1193.774   0.4885   0.1477   0.9388   0
1193.834   0.7299   0.1636   0.9384   0
1193.893   0.4434   0.1463   0.9381   0
1193.953   0.6684   0.1603   0.9378   0
1194.013   0.4764   0.1469   0.9375   0
1194.073   0.5128   0.1480   0.9372   0
1194.133   0.5738   0.1522   0.9369   0
1194.193   0.5145   0.1485   0.9366   0
1194.252   0.3626   0.1370   0.9362   0
1194.312   0.6501   0.1548   0.9359   0
1194.372   0.5225   0.1470   0.9356   0
1194.432   0.5910   0.1514   0.9352   0
1194.492   0.4640   0.1432   0.9349   0
1194.552   0.4985   0.1456   0.9346   0
1194.611   0.5211   0.1462   0.9342   0
1194.671   0.6240   0.1526   0.9339   0
1194.731   0.5667   0.1496   0.9335   0
1194.791   0.5440   0.1474   0.9332   0
1194.851   0.4868   0.1443   0.9328   0
1194.910   0.3037   0.1319   0.9325   0
1194.970   0.2687   0.1287   0.9321   0
1195.030   0.1772   0.1216   0.9318   0
1195.090   0.1425   0.1187   0.9314   0
1195.150   0.0973   0.1148   0.9310   0
1195.209   0.1091   0.1158   0.9307   0
1195.269   0.0183   0.1071   0.9303   0
1195.329   0.0527   0.1105   0.9299   0
1195.389   0.0840   0.1050   0.9296   0
1195.449   0.0415   0.1092   0.9292   0
1195.509   0.1429   0.1184   0.9288   0
1195.568   0.1428   0.1183   0.9284   0
1195.628   0.1082   0.1153   0.9280   0
1195.688   0.2669   0.1279   0.9276   0
1195.748   0.4139   0.1388   0.9272   0
1195.808   0.4589   0.1415   0.9268   0
1195.868   0.5149   0.1449   0.9264   0
1195.927   0.6508   0.1533   0.9260   0
1195.987   0.5144   0.1450   0.9256   0
1196.047   0.6162   0.1511   0.9252   0
1196.107   0.4462   0.1405   0.9248   0
1196.167   0.4232   0.1386   0.9244   0
1196.226   0.3102   0.1309   0.9240   0
1196.286   0.5130   0.1447   0.9235   0
1196.346   0.5012   0.1436   0.9231   0
1196.406   0.4898   0.1428   0.9227   0
1196.466   0.4673   0.1407   0.9222   0
1196.526   0.6363   0.1516   0.9218   0
1196.585   0.4565   0.1408   0.9214   0
1196.645   0.4002   0.1362   0.9209   0
1196.705   0.5126   0.1441   0.9205   0
1196.765   0.7146   0.1555   0.9200   0
1196.825   0.7420   0.1583   0.9195   0
1196.885   0.6262   0.1518   0.9191   0
1196.944   0.6351   0.1533   0.9186   0
1197.004   0.6342   0.1534   0.9181   0
1197.064   0.5217   0.1456   0.9177   0
1197.124   0.5914   0.1497   0.9172   0
1197.184   0.9000   0.1679   0.9167   0
1197.243   0.8061   0.1621   0.9162   0
1197.303   0.6938   0.1556   0.9157   0
1197.363   0.7434   0.1567   0.9152   0
1197.423   0.7873   0.1594   0.9147   0
1197.483   0.7206   0.1554   0.9142   0
1197.542   0.8207   0.1608   0.9137   0
1197.602   0.7308   0.1560   0.9132   0
1197.662   0.6524   0.1516   0.9127   0
1197.722   0.6744   0.1528   0.9122   0
1197.782   0.7409   0.1567   0.9117   0
1197.842   0.8630   0.1625   0.9111   0
1197.901   0.9843   0.1681   0.9106   0
1197.961   0.6819   0.1531   0.9100   1
1198.021   0.7687   0.1577   0.9095   1
1198.081   0.7792   0.1574   0.9089   1
1198.141   0.9345   0.1658   0.9084   1
1198.201   0.7676   0.1571   0.9078   1
1198.260   0.8784   0.1627   0.9073   1
1198.320   0.7566   0.1566   0.9067   1
1198.380   0.5896   0.1465   0.9061   1
1198.440   0.7107   0.1536   0.9055   1
1198.500   0.7537   0.1561   0.9050   1
1198.559   0.7957   0.1576   0.9044   1
1198.619   0.7727   0.1567   0.9038   1
1198.679   0.8377   0.1604   0.9032   0
1198.739   0.6169   0.1482   0.9026   0
1198.799   0.6012   0.1473   0.9019   0
1198.859   0.6279   0.1496   0.9013   0
1198.918   0.6399   0.1511   0.9007   0
1198.978   0.7227   0.1562   0.9001   0
1199.038   0.6250   0.1503   0.8994   0
1199.098   0.6311   0.1503   0.8988   0
1199.158   0.5187   0.1438   0.8981   0
1199.217   0.3941   0.1350   0.8975   0
1199.277   0.4736   0.1402   0.8968   0
1199.337   0.3245   0.1291   0.8962   0
1199.397   0.2761   0.1251   0.8955   0
1199.457   0.2209   0.1211   0.8948   0
1199.517   0.1443   0.1149   0.8941   0
1199.576   0.2213   0.1209   0.8934   0
1199.636   0.3851   0.1327   0.8927   0
1199.696   0.3309   0.1285   0.8920   0
1199.756   0.3413   0.1295   0.8913   0
1199.816   0.5814   0.1448   0.8906   0
1199.875   0.5922   0.1455   0.8898   0
1199.935   0.4626   0.1379   0.8891   0
1199.995   0.5060   0.1406   0.8884   0
1200.055   0.2881   0.1255   0.8876   0
1200.115   0.2118   0.1195   0.8869   0
1200.175   0.1902   0.1178   0.8861   0
1200.234   0.1907   0.1181   0.8853   0
1200.294   0.2564   0.1230   0.8845   0
1200.354   0.2669   0.1239   0.8837   0
1200.414   0.3650   0.1310   0.8829   0
1200.474   0.3107   0.1271   0.8821   0
1200.533   0.4195   0.1345   0.8813   0
1200.593   0.3318   0.1279   0.8805   0
1200.653   0.1257   0.1121   0.8797   0
1200.713   0.2339   0.1210   0.8788   0
1200.773   0.2881   0.1252   0.8780   0
1200.833   0.2771   0.1244   0.8771   0
1200.892   0.4824   0.1378   0.8763   0
1200.952   0.4167   0.1338   0.8754   0
1201.012   0.4382   0.1356   0.8745   0
1201.072   0.3945   0.1316   0.8736   0
1201.132   0.4045   0.1325   0.8727   0
1201.192   0.4470   0.1357   0.8718   0
1201.251   0.4033   0.1325   0.8709   0
1201.311   0.4027   0.1324   0.8700   0
1201.371   0.2407   0.1212   0.8690   0
1201.431   0.1760   0.1158   0.8681   0
1201.491   0.1969   0.1176   0.8671   0
1201.550   0.1431   0.1132   0.8662   0
1201.610   0.1432   0.1129   0.8652   0
1201.670   0.1645   0.1147   0.8642   0
1201.730   0.1431   0.1129   0.8632   0
1201.790   0.2710   0.1225   0.8622   0
1201.849   0.2496   0.1214   0.8611   0
1201.909   0.2881   0.1245   0.8601   0
1201.969   0.3724   0.1310   0.8591   0
1202.029   0.2754   0.1244   0.8580   0
1202.089   0.1509   0.1140   0.8569   0
1202.149   0.1385   0.1130   0.8558   0
1202.208   0.2244   0.1206   0.8548   0
1202.268   0.1228   0.1125   0.8537   0
1202.328   0.1360   0.1136   0.8525   0
1202.388   0.1581   0.1150   0.8514   0
1202.448   0.2487   0.1213   0.8503   0
1202.508   0.1733   0.1158   0.8491   0
1202.567   0.2299   0.1205   0.8479   0
1202.627   0.1486   0.1133   0.8468   0
1202.687   0.1134   0.1099   0.8456   0
1202.747   0.1111   0.1093   0.8443   0
1202.807   0.2286   0.1190   0.8431   0
1202.866   0.2395   0.1201   0.8419   0
1202.926   0.1965   0.1165   0.8406   0
1202.986   0.2068   0.1174   0.8394   0
1203.046   0.2810   0.1231   0.8381   0
1203.106   0.2278   0.1186   0.8368   0
1203.166   0.2913   0.1232   0.8355   0
1203.225   0.3542   0.1279   0.8342   0
1203.285   0.2374   0.1196   0.8328   0
1203.345   0.3537   0.1276   0.8315   0
1203.405   0.4068   0.1313   0.8301   0
1203.465   0.3005   0.1242   0.8287   0
1203.525   0.3955   0.1306   0.8273   0
1203.584   0.3850   0.1295   0.8259   0
1203.644   0.4699   0.1350   0.8244   0
1203.704   0.3218   0.1248   0.8230   0
1203.764   0.3847   0.1295   0.8215   0
1203.824   0.5211   0.1381   0.8200   0
1203.883   0.3200   0.1249   0.8185   0
1203.943   0.2884   0.1226   0.8170   0
1204.003   0.5421   0.1396   0.8154   0
1204.063   0.3943   0.1302   0.8138   0
1204.123   0.4568   0.1341   0.8122   0
1204.182   0.3621   0.1275   0.8107   0
1204.242   0.3831   0.1293   0.8090   0
1204.302   0.4147   0.1310   0.8074   0
1204.362   0.3410   0.1260   0.8057   0
1204.422   0.4252   0.1319   0.8040   0
1204.482   0.5200   0.1381   0.8023   0
1204.541   0.3191   0.1246   0.8006   0
1204.601   0.4244   0.1319   0.7988   0
1204.661   0.4560   0.1339   0.7970   0
1204.721   0.4768   0.1352   0.7952   0
1204.781   0.6344   0.1442   0.7934   0
1204.841   0.5509   0.1393   0.7916   0
1204.900   0.6354   0.1447   0.7897   0
1204.960   0.4047   0.1303   0.7878   0
1205.020   0.5620   0.1400   0.7859   0
1205.080   0.3724   0.1280   0.7839   0
1205.140   0.4985   0.1358   0.7820   0
1205.199   0.5300   0.1381   0.7800   0
1205.259   0.4332   0.1326   0.7780   0
1205.319   0.6014   0.1442   0.7759   0
1205.379   0.5719   0.1432   0.7738   0
1205.439   0.5759   0.1419   0.7717   0
1205.499   0.3882   0.1304   0.7696   0
1205.558   0.3549   0.1276   0.7675   0
1205.618   0.5130   0.1387   0.7653   0
1205.678   0.3225   0.1253   0.7630   0
1205.738   0.3935   0.1302   0.7608   0
1205.798   0.2185   0.1169   0.7585   0
1205.857   0.2672   0.1205   0.7562   0
1205.917   0.1410   0.1105   0.7539   0
1205.977   0.1514   0.1113   0.7515   0
1206.037   0.0994   0.1069   0.7491   0
1206.097   0.0782   0.1050   0.7466   0
1206.157   0.0571   0.1030   0.7442   0
1206.216   0.0668   0.1040   0.7417   0
1206.276   0.0663   0.1038   0.7391   0
1206.336   0.0342   0.1009   0.7365   0
1206.396   0.0343   0.1010   0.7339   0
1206.456   0.0026   0.0979   0.7313   0
1206.516   0.0131   0.0989   0.7286   0
1206.575   -0.0076   0.0969   0.7259   0
1206.635   0.0235   0.0999   0.7231   0
1206.695   0.0445   0.1018   0.7203   0
1206.755   0.0133   0.0989   0.7174   0
1206.815   0.0859   0.1055   0.7145   0
1206.874   0.0649   0.1035   0.7117   0
1206.934   0.1066   0.1072   0.7087   0
1206.994   0.3045   0.1226   0.7057   0
1207.054   0.2211   0.1161   0.7026   0
1207.114   0.1162   0.1080   0.6995   0
1207.173   0.1574   0.1114   0.6964   0
1207.233   0.1276   0.1090   0.6932   0
1207.293   0.2723   0.1211   0.6899   0
1207.353   0.2562   0.1200   0.6866   0
1207.413   0.3318   0.1258   0.6833   0
1207.473   0.3064   0.1236   0.6799   0
1207.532   0.2403   0.1184   0.6765   0
1207.592   0.3081   0.1237   0.6730   0
1207.652   0.3533   0.1274   0.6695   0
1207.712   0.2728   0.1210   0.6659   0
1207.772   0.2798   0.1210   0.6622   0
1207.832   0.4011   0.1293   0.6585   0
1207.891   0.3153   0.1228   0.6548   0
1207.951   0.2844   0.1208   0.6510   0
1208.011   0.2638   0.1197   0.6471   0
1208.071   0.1912   0.1139   0.6431   0
1208.131   0.1400   0.1095   0.6391   0
1208.190   0.1088   0.1069   0.6352   0
1208.250   0.0778   0.1042   0.6310   0
1208.310   0.0569   0.1023   0.6268   0
1208.370   0.0051   0.0974   0.6226   0
1208.430   0.0053   0.0974   0.6183   0
1208.490   0.0679   0.1033   0.6139   0
1208.549   0.0156   0.0983   0.6095   0
1208.609   0.0258   0.0993   0.6050   0
1208.669   0.0052   0.0973   0.6004   0
1208.729   -0.0057   0.0962   0.5958   0
1208.789   0.0565   0.1020   0.5910   0
1208.849   0.0361   0.1002   0.5862   0
1208.908   0.1191   0.1075   0.5814   0
1208.968   0.1085   0.1066   0.5765   0
1209.028   0.1806   0.1127   0.5715   0
1209.088   0.1911   0.1136   0.5664   0
1209.148   0.2221   0.1160   0.5612   0
1209.207   0.3464   0.1250   0.5560   0
1209.267   0.3769   0.1268   0.5507   0
1209.327   0.3044   0.1221   0.5452   0
1209.387   0.3249   0.1232   0.5397   0
1209.447   0.3249   0.1233   0.5341   0
1209.506   0.3460   0.1248   0.5285   0
1209.566   0.4809   0.1333   0.5228   0
1209.626   0.4080   0.1292   0.5169   1
1209.686   0.3661   0.1261   0.5110   1
1209.746   0.3250   0.1233   0.5049   1
1209.806   0.3865   0.1273   0.4988   1
1209.865   0.3036   0.1217   0.4927   1
1209.925   0.4892   0.1340   0.4864   1
1209.985   0.4376   0.1304   0.4800   1
1210.045   0.4476   0.1314   0.4735   1
1210.105   0.3340   0.1240   0.4669   1
1210.165   0.3957   0.1279   0.4602   1
1210.224   0.5089   0.1350   0.4536   1
1210.284   0.6022   0.1407   0.4467   1
1210.344   0.4673   0.1331   0.4397   1
1210.404   0.3607   0.1270   0.4326   1
1210.464   0.3193   0.1240   0.4254   1
1210.523   0.4336   0.1316   0.4183   1
1210.583   0.3250   0.1242   0.4109   1
1210.643   0.2709   0.1210   0.4034   1
1210.703   0.3590   0.1281   0.3959   1
1210.763   0.3991   0.1305   0.3882   1
1210.823   0.3152   0.1236   0.3804   1
1210.882   0.3016   0.1228   0.3727   1
1210.942   0.4196   0.1307   0.3648   1
1211.002   0.3250   0.1234   0.3567   1
1211.062   0.3922   0.1279   0.3486   1
1211.122   0.3723   0.1262   0.3403   1
1211.181   0.4236   0.1289   0.3322   1
1211.241   0.3523   0.1246   0.3238   1
1211.301   0.2698   0.1187   0.3153   1
1211.361   0.2806   0.1196   0.3067   1
1211.421   0.2300   0.1154   0.2981   1
1211.481   0.3118   0.1215   0.2893   1
1211.540   0.3430   0.1240   0.2807   1
1211.600   0.3021   0.1210   0.2719   1
1211.660   0.3118   0.1215   0.2630   1
1211.720   0.2915   0.1201   0.2540   1
1211.780   0.2701   0.1181   0.2450   1
1211.839   0.3004   0.1205   0.2361   1
1211.899   0.3100   0.1212   0.2270   1
1211.959   0.2079   0.1137   0.2180   1
1212.019   0.2284   0.1152   0.2089   1
1212.079   0.2689   0.1182   0.1998   1
1212.139   0.3098   0.1209   0.1907   1
1212.198   0.2275   0.1150   0.1818   1
1212.258   0.1762   0.1112   0.1727   1
1212.318   0.2370   0.1157   0.1637   1
1212.378   0.1960   0.1125   0.1548   1
1212.438   0.2060   0.1130   0.1460   1
1212.497   0.1345   0.1076   0.1374   1
1212.557   0.1337   0.1075   0.1287   1
1212.617   0.1130   0.1058   0.1202   1
1212.677   0.1738   0.1107   0.1119   1
1212.737   0.1128   0.1055   0.1037   1
1212.797   0.0915   0.1039   0.0957   1
1212.856   0.1017   0.1048   0.0880   1
1212.916   0.0613   0.1012   0.0805   1
1212.976   0.1117   0.0976   0.0731   1
1213.036   0.0813   0.1028   0.0661   1
1213.096   0.0408   0.0991   0.0594   1
1213.156   0.0308   0.0982   0.0530   1
1213.215   0.0713   0.1020   0.0470   1
1213.275   0.1017   0.1046   0.0412   1
1213.335   0.0614   0.1008   0.0359   1
1213.395   0.0611   0.1009   0.0309   1
1213.455   0.0209   0.0972   0.0263   1
1213.514   0.0615   0.1010   0.0222   1
1213.574   0.0413   0.0991   0.0185   1
1213.634   0.0210   0.0972   0.0151   1
1213.694   0.0115   0.0966   0.0122   1
1213.754   0.0336   0.0988   0.0096   1
1213.813   0.0238   0.0978   0.0075   1
1213.873   0.0125   0.0966   0.0057   1
1213.933   0.0542   0.1007   0.0041   1
1213.993   0.0117   0.0968   0.0029   1
1214.053   0.0426   0.0995   0.0019   1
1214.113   0.0614   0.1011   0.0011   1
1214.172   0.0380   0.0988   0.0006   1
1214.232   0.0183   0.0970   0.0003   1
1214.292   0.0277   0.0977   0.0002   1
1214.352   0.0363   0.0983   0.0001   1
1214.412   0.0657   0.1012   0.0001   1
1214.472   0.1530   0.1080   0.0001   1
1214.531   0.1377   0.1065   0.0000   0
1214.591   0.2096   0.1119   0.0000   0
1214.651   0.3460   0.1204   0.0000   0
1214.711   0.4430   0.1257   0.0000   0
1214.771   2.7218   0.2161   0.0000   0
1214.830   8.0509   0.3336   0.0000   0
1214.890   13.6294   0.4181   0.0000   0
1214.950   24.1825   0.5403   0.0000   0
1215.010   35.0122   0.6396   0.0000   0
1215.070   46.1624   0.7278   0.0000   0
1215.130   61.9036   0.8352   0.0000   0
1215.189   79.1728   0.9382   0.0000   0
1215.249   93.1130   1.0130   0.0000   0
1215.309   102.5563   1.0609   0.0000   0
1215.369   110.9440   1.1013   0.0000   0
1215.429   117.3080   1.1310   0.0000   0
1215.489   125.1798   1.1667   0.0000   0
1215.548   123.2053   1.1577   0.0000   0
1215.608   121.3075   1.1488   0.0000   0
1215.668   124.1688   1.1671   0.0000   0
1215.728   122.3839   1.1794   0.0000   0
1215.788   115.3722   1.1472   0.0000   0
1215.847   106.4291   1.1030   0.0000   0
1215.907   95.5678   1.0472   0.0000   0
1215.967   81.9910   0.9775   0.0000   0
1216.027   71.4539   0.9168   0.0000   0
1216.087   54.3792   0.7970   0.0000   0
1216.146   37.1145   0.6594   0.0000   0
1216.206   25.7637   0.5540   0.0000   0
1216.266   17.9821   0.4709   0.0000   0
1216.326   9.8296   0.3606   0.0000   0
1216.386   3.8842   0.2456   0.0000   0
1216.446   1.2525   0.1641   0.0000   0
1216.505   0.2250   0.1119   0.0000   0
1216.565   0.1437   0.1062   0.0000   0
1216.625   0.1531   0.1068   0.0000   1
1216.685   0.0778   0.1010   0.0000   1
1216.745   0.0989   0.1030   0.0000   1
1216.805   0.1402   0.1061   0.0000   1
1216.864   0.0835   0.1014   0.0000   1
1216.924   0.0650   0.0999   0.0000   1
1216.984   0.0457   0.0981   0.0000   1
1217.044   0.0666   0.1000   0.0000   1
1217.104   0.0563   0.0990   0.0000   1
1217.163   0.0763   0.1005   0.0000   1
1217.223   0.0569   0.0990   0.0000   1
1217.283   0.0190   0.0953   0.0000   1
1217.343   0.0100   0.0946   0.0000   1
1217.403   0.0204   0.0955   0.0000   1
1217.463   0.0203   0.0955   0.0000   1
1217.522   -0.0098   0.0926   0.0000   1
1217.582   0.0202   0.0954   0.0000   1
1217.642   0.0008   0.0935   0.0000   1
1217.702   0.0017   0.0935   0.0000   1
1217.762   0.0419   0.0971   0.0000   1
1217.821   0.0123   0.0944   0.0000   1
1217.881   0.0227   0.0951   0.0000   1
1217.941   0.0332   0.0962   0.0000   1
1218.001   0.0328   0.0962   0.0000   1
1218.061   0.0026   0.0933   0.0000   1
1218.121   0.0125   0.0943   0.0000   1
1218.180   -0.0073   0.0923   0.0000   1
1218.240   0.0027   0.0933   0.0000   1
1218.300   0.0323   0.0961   0.0000   1
1218.360   -0.0071   0.0922   0.0000   1
1218.420   0.0427   0.0969   0.0000   1
1218.479   0.0232   0.0951   0.0000   1
1218.539   0.0138   0.0941   0.0000   1
1218.599   0.0433   0.0969   0.0000   1
1218.659   0.0440   0.0968   0.0000   1
1218.719   0.0243   0.0950   0.0000   1
1218.779   0.0361   0.0963   0.0000   1
1218.838   0.0469   0.0977   0.0000   1
1218.898   0.0362   0.0964   0.0000   1
1218.958   0.0364   0.0963   0.0000   1
1219.018   0.0267   0.0954   0.0000   1
1219.078   0.0391   0.0971   0.0000   1
1219.137   0.0608   0.0994   0.0000   1
1219.197   0.0709   0.1001   0.0001   1
1219.257   0.0674   0.0992   0.0001   1
1219.317   0.0885   0.1015   0.0001   1
1219.377   0.0880   0.1012   0.0002   1
1219.437   0.0661   0.0988   0.0003   1
1219.496   0.0840   0.1001   0.0005   1
1219.556   0.0539   0.0973   0.0008   1
1219.616   0.0738   0.0994   0.0011   1
1219.676   0.0839   0.1001   0.0016   1
1219.736   0.1233   0.1037   0.0023   1
1219.796   0.1329   0.1043   0.0031   1
1219.855   0.1233   0.1034   0.0042   1
1219.915   0.1434   0.1050   0.0055   1
1219.975   0.1530   0.1060   0.0070   1
1220.035   0.1631   0.1066   0.0088   1
1220.095   0.1335   0.1043   0.0110   1
1220.154   0.2027   0.1094   0.0134   1
1220.214   0.2613   0.1142   0.0162   1
1220.274   0.1618   0.1065   0.0193   1
1220.334   0.1810   0.1077   0.0228   1
1220.394   0.2502   0.1135   0.0266   1
1220.453   0.1713   0.1069   0.0307   1
1220.513   0.1317   0.1039   0.0352   1
1220.573   0.2201   0.1109   0.0401   0
1220.633   0.2307   0.1114   0.0453   0
1220.693   0.1512   0.1056   0.0508   0
1220.753   0.2406   0.1126   0.0567   0
1220.812   0.1521   0.1054   0.0627   0
1220.872   0.2506   0.1129   0.0691   0
1220.932   0.2506   0.1129   0.0758   0
1220.992   0.2901   0.1160   0.0827   0
1221.052   0.4080   0.1238   0.0898   0
1221.112   0.3093   0.1173   0.0972   0
1221.171   0.2897   0.1157   0.1047   0
1221.231   0.2706   0.1146   0.1124   0
1221.291   0.3497   0.1191   0.1203   0
1221.351   0.3290   0.1180   0.1284   0
1221.411   0.3679   0.1206   0.1366   0
1221.470   0.2990   0.1162   0.1448   0
1221.530   0.3482   0.1199   0.1532   0
1221.590   0.2894   0.1155   0.1617   0
1221.650   0.4471   0.1266   0.1703   0
1221.710   0.2994   0.1160   0.1789   0
1221.770   0.2890   0.1158   0.1876   0
1221.829   0.3574   0.1200   0.1962   0
1221.889   0.3080   0.1170   0.2049   0
1221.949   0.4060   0.1231   0.2137   0
1222.009   0.2783   0.1146   0.2224   0
1222.069   0.3905   0.1223   0.2312   0
1222.129   0.5762   0.1355   0.2399   0
1222.188   0.4294   0.1268   0.2485   0
1222.248   0.4188   0.1256   0.2572   0
1222.308   0.4148   0.1248   0.2659   0
1222.368   0.3647   0.1221   0.2745   0
1222.428   0.4379   0.1270   0.2830   0
1222.487   0.5136   0.1308   0.2914   0
1222.547   0.5395   0.1320   0.2999   0
1222.607   0.4932   0.1287   0.3083   0
1222.667   0.3556   0.1196   0.3166   0
1222.727   0.4340   0.1250   0.3249   0
1222.786   0.4738   0.1275   0.3329   0
1222.846   0.4734   0.1272   0.3410   0
1222.906   0.4441   0.1250   0.3491   0
1222.966   0.4538   0.1257   0.3570   0
1223.026   0.3957   0.1223   0.3649   0
1223.086   0.4339   0.1246   0.3727   0
1223.145   0.6186   0.1357   0.3802   0
1223.205   0.5302   0.1303   0.3878   0
1223.265   0.3250   0.1173   0.3954   0
1223.325   0.3736   0.1207   0.4028   0
1223.385   0.4520   0.1258   0.4101   0
1223.445   0.5108   0.1295   0.4174   0
1223.504   0.5298   0.1305   0.4244   0
1223.564   0.5388   0.1308   0.4315   0
1223.624   0.6267   0.1353   0.4385   0
1223.684   0.6166   0.1346   0.4453   0
1223.744   0.5192   0.1295   0.4521   0
1223.803   0.5383   0.1309   0.4587   0
1223.863   0.4024   0.1223   0.4653   0
1223.923   0.6071   0.1344   0.4718   0
1223.983   0.6656   0.1377   0.4783   0
1224.043   0.4915   0.1278   0.4846   0
1224.103   0.5365   0.1317   0.4909   0
1224.162   0.4837   0.1288   0.4969   0
1224.222   0.5096   0.1312   0.5030   0
1224.282   0.5175   0.1313   0.5090   0
1224.342   0.5340   0.1315   0.5149   0
1224.402   0.4961   0.1293   0.5207   0
1224.461   0.6680   0.1399   0.5263   0
1224.521   0.5723   0.1330   0.5320   0
1224.581   0.5027   0.1282   0.5375   0
1224.641   0.6660   0.1371   0.5430   0
1224.701   0.5201   0.1293   0.5484   0
1224.761   0.5784   0.1326   0.5537   0
1224.820   0.7234   0.1406   0.5589   0
1224.880   0.6259   0.1352   0.5640   0
1224.940   0.8981   0.1489   0.5691   0
1225.000   0.5772   0.1326   0.5741   0
1225.060   0.7025   0.1392   0.5791   0
1225.120   0.6340   0.1351   0.5839   0
1225.179   0.7215   0.1400   0.5887   0
1225.239   0.7502   0.1418   0.5934   0
1225.299   0.7989   0.1445   0.5980   0
1225.359   0.7122   0.1396   0.6026   0
1225.419   0.7027   0.1391   0.6071   0
1225.478   0.6832   0.1382   0.6115   0
1225.538   0.6253   0.1350   0.6159   0
1225.598   0.7900   0.1439   0.6202   0
1225.658   0.6257   0.1350   0.6244   0
1225.718   0.7606   0.1420   0.6286   0
1225.777   0.6248   0.1350   0.6327   0
1225.837   0.9247   0.1502   0.6368   0
1225.897   0.7791   0.1431   0.6408   0
1225.957   0.8757   0.1476   0.6447   0
1226.017   0.7603   0.1423   0.6486   0
1226.077   0.6922   0.1387   0.6524   0
1226.136   0.8273   0.1455   0.6562   0
1226.196   0.7005   0.1386   0.6599   0
1226.256   0.7201   0.1397   0.6635   0
1226.316   0.7006   0.1389   0.6672   0
1226.376   0.8443   0.1462   0.6707   0
1226.436   0.7377   0.1408   0.6742   0
1226.495   0.6218   0.1343   0.6776   0
1226.555   0.7950   0.1437   0.6810   0
1226.615   0.7276   0.1397   0.6844   0
1226.675   0.9796   0.1526   0.6877   0
1226.735   0.8152   0.1447   0.6910   0
1226.794   0.8436   0.1457   0.6941   0
1226.854   0.8263   0.1452   0.6973   0
1226.914   0.6615   0.1366   0.7004   0
1226.974   0.8252   0.1449   0.7035   0
1227.034   0.8255   0.1452   0.7065   0
1227.094   0.8351   0.1452   0.7095   0
1227.153   0.8916   0.1486   0.7124   0
1227.213   0.8783   0.1494   0.7153   0
1227.273   1.0431   0.1575   0.7182   0
1227.333   0.8947   0.1511   0.7210   0
1227.393   0.7520   0.1441   0.7238   0
1227.453   0.7116   0.1429   0.7266   0
1227.512   0.7147   0.1438   0.7293   0
1227.572   0.7278   0.1436   0.7319   0
1227.632   0.9470   0.1530   0.7346   0
1227.692   0.7626   0.1434   0.7372   0
1227.752   0.6516   0.1367   0.7397   0
1227.811   0.7192   0.1412   0.7422   0
1227.871   0.7673   0.1426   0.7447   0
1227.931   0.7351   0.1398   0.7472   0
1227.991   0.6583   0.1358   0.7496   0
1228.051   0.6771   0.1369   0.7520   0
1228.110   0.6675   0.1363   0.7543   0
1228.170   0.5631   0.1307   0.7567   0
1228.230   0.7370   0.1402   0.7590   0
1228.290   0.6982   0.1381   0.7612   0
1228.350   0.6597   0.1361   0.7635   0
1228.410   0.7465   0.1407   0.7657   0
1228.469   0.7371   0.1404   0.7678   0
1228.529   0.8142   0.1443   0.7700   0
1228.589   0.7447   0.1406   0.7721   0
1228.649   0.6188   0.1336   0.7742   0
1228.709   0.5901   0.1312   0.7763   0
1228.769   0.7055   0.1380   0.7783   0
1228.828   0.6387   0.1348   0.7803   0
1228.888   0.8307   0.1446   0.7823   0
1228.948   0.7247   0.1387   0.7843   0
1229.008   0.5521   0.1300   0.7862   0
1229.068   0.6681   0.1359   0.7881   0
1229.127   0.6874   0.1367   0.7900   0
1229.187   0.5331   0.1285   0.7918   0
1229.247   0.6093   0.1332   0.7937   0
1229.307   0.5993   0.1324   0.7955   0
1229.367   0.5995   0.1326   0.7973   0
1229.427   0.7910   0.1425   0.7991   0
1229.486   0.8577   0.1458   0.8008   0
1229.546   0.6089   0.1327   0.8025   0
1229.606   0.5511   0.1294   0.8042   0
1229.666   0.7718   0.1416   0.8059   0
1229.726   0.7912   0.1420   0.8076   0
1229.786   0.6854   0.1366   0.8092   0
1229.845   0.5985   0.1322   0.8108   0
1229.905   0.6458   0.1346   0.8124   0
1229.965   0.9139   0.1478   0.8140   0
1230.025   0.7994   0.1429   0.8156   0
1230.085   0.7514   0.1403   0.8171   0
1230.144   0.8188   0.1434   0.8186   0
1230.204   0.7517   0.1403   0.8201   0
1230.264   0.6446   0.1343   0.8216   0
1230.324   0.7403   0.1398   0.8231   0
1230.384   0.7214   0.1384   0.8246   0
1230.443   0.8497   0.1460   0.8260   0
1230.503   0.6919   0.1385   0.8274   0
1230.563   0.6094   0.1248   0.8288   0
1230.623   0.9563   0.1527   0.8302   0
1230.683   0.5881   0.1333   0.8316   0
1230.743   0.6684   0.1380   0.8329   0
1230.802   0.5671   0.1321   0.8343   0
1230.862   0.6244   0.1343   0.8356   0
1230.922   0.7037   0.1382   0.8369   0
1230.982   0.7684   0.1410   0.8382   0
1231.042   0.6621   0.1354   0.8395   0
1231.102   0.5477   0.1287   0.8407   0
1231.161   0.5677   0.1301   0.8420   0
1231.221   0.6541   0.1346   0.8432   0
1231.281   0.6821   0.1361   0.8444   0
1231.341   0.6533   0.1349   0.8456   0
1231.401   0.5671   0.1299   0.8468   0
1231.460   0.6144   0.1321   0.8480   0
1231.520   0.5767   0.1305   0.8492   0
1231.580   0.6153   0.1326   0.8503   0
1231.640   0.7592   0.1406   0.8515   0
1231.700   0.5397   0.1286   0.8526   0
1231.760   0.5205   0.1272   0.8537   0
1231.819   0.6832   0.1364   0.8548   0
1231.879   0.6544   0.1350   0.8559   0
1231.939   0.5497   0.1287   0.8570   0
1231.999   0.5601   0.1294   0.8581   0
1232.059   0.4161   0.1206   0.8591   0
1232.118   0.4058   0.1198   0.8601   0
1232.178   0.4151   0.1200   0.8612   0
1232.238   0.5113   0.1263   0.8622   0
1232.298   0.3776   0.1181   0.8632   0
1232.358   0.4736   0.1244   0.8642   0
1232.418   0.5613   0.1294   0.8652   0
1232.477   0.5405   0.1295   0.8662   0
1232.537   0.3981   0.1203   0.8671   0
1232.597   0.5333   0.1299   0.8681   0
1232.657   0.4384   0.1240   0.8691   0
1232.717   0.5985   0.1338   0.8700   0
1232.776   0.4655   0.1254   0.8709   0
1232.836   0.6572   0.1365   0.8718   0
1232.896   0.7642   0.1417   0.8727   0
1232.956   0.6357   0.1333   0.8737   0
1233.016   0.6721   0.1355   0.8745   0
1233.076   0.5769   0.1300   0.8754   0
1233.135   0.6248   0.1327   0.8763   0
1233.195   0.5586   0.1295   0.8772   0
1233.255   0.5582   0.1290   0.8780   0
1233.315   0.6053   0.1317   0.8789   0
1233.375   0.6429   0.1337   0.8797   0
1233.434   0.7194   0.1376   0.8805   0
1233.494   0.9009   0.1469   0.8813   0
1233.554   0.8058   0.1421   0.8822   0
1233.614   0.8536   0.1447   0.8830   0
1233.674   0.7398   0.1389   0.8838   0
1233.734   0.7121   0.1375   0.8845   0
1233.793   0.7501   0.1395   0.8853   0
1233.853   0.6449   0.1337   0.8861   0
1233.913   0.6545   0.1340   0.8869   0
1233.973   0.7506   0.1392   0.8876   0
1234.033   0.7219   0.1381   0.8884   0
1234.093   0.7301   0.1383   0.8891   0
1234.152   0.6530   0.1337   0.8898   0
1234.212   0.7680   0.1403   0.8906   0
1234.272   0.7302   0.1380   0.8913   0
1234.332   0.7403   0.1389   0.8920   0
1234.392   0.8551   0.1446   0.8927   0
1234.451   0.7880   0.1412   0.8934   0
1234.511   0.6635   0.1348   0.8941   0
1234.571   0.7014   0.1365   0.8948   0
1234.631   0.6917   0.1363   0.8955   0
1234.691   0.5960   0.1309   0.8962   0
1234.750   0.6439   0.1332   0.8968   0
1234.810   0.7196   0.1371   0.8975   0
1234.870   0.7294   0.1380   0.8981   0
1234.930   0.5849   0.1303   0.8988   0
1234.990   0.7556   0.1388   0.8994   0
1235.050   0.5950   0.1305   0.9001   0
1235.109   0.6146   0.1315   0.9007   0
1235.169   0.7197   0.1375   0.9013   0
1235.229   0.7001   0.1365   0.9019   0
1235.289   0.6713   0.1348   0.9025   0
1235.349   0.5474   0.1280   0.9032   0
1235.409   0.5172   0.1258   0.9038   0
1235.468   0.4441   0.1217   0.9044   0
1235.528   0.6704   0.1360   0.9049   0
1235.588   0.5505   0.1295   0.9055   0
1235.648   0.7187   0.1392   0.9061   0
1235.708   0.7199   0.1394   0.9067   0
1235.767   0.4549   0.1238   0.9073   0
1235.827   0.5024   0.1277   0.9078   0
1235.887   0.6395   0.1365   0.9084   0
1235.947   0.5479   0.1319   0.9089   0
1236.007   0.6502   0.1364   0.9095   0
1236.067   0.5099   0.1269   0.9100   0
1236.126   0.5621   0.1301   0.9106   0
1236.186   0.5959   0.1315   0.9111   0
1236.246   0.6038   0.1315   0.9116   0
1236.306   0.5380   0.1271   0.9122   0
1236.366   0.5085   0.1252   0.9127   0
1236.426   0.5080   0.1246   0.9132   0
1236.485   0.4508   0.1218   0.9137   0
1236.545   0.6696   0.1341   0.9142   0
1236.605   0.6315   0.1323   0.9147   0
1236.665   0.5929   0.1295   0.9152   0
1236.725   0.5728   0.1291   0.9157   0
1236.784   0.4987   0.1246   0.9162   0
1236.844   0.4610   0.1220   0.9167   0
1236.904   0.5848   0.1295   0.9172   0
1236.964   0.5372   0.1267   0.9177   0
1237.024   0.6324   0.1323   0.9181   0
1237.083   0.5184   0.1260   0.9186   0
1237.143   0.6328   0.1321   0.9191   0
1237.203   0.5848   0.1298   0.9195   0
1237.263   0.6523   0.1335   0.9200   0
1237.323   0.5286   0.1264   0.9204   0
1237.383   0.5570   0.1278   0.9209   0
1237.442   0.4804   0.1238   0.9213   0
1237.502   0.6035   0.1305   0.9218   0
1237.562   0.3753   0.1167   0.9222   0
1237.622   0.5469   0.1270   0.9227   0
1237.682   0.5282   0.1264   0.9231   0
1237.742   0.6047   0.1308   0.9235   0
1237.801   0.5384   0.1271   0.9239   0
1237.861   0.5195   0.1259   0.9244   0
1237.921   0.5293   0.1266   0.9248   0
1237.981   0.4909   0.1240   0.9252   0
1238.041   0.6715   0.1343   0.9256   0
1238.100   0.4620   0.1219   0.9260   0
1238.160   0.6325   0.1316   0.9264   0
1238.220   0.5377   0.1270   0.9268   0
1238.280   0.5660   0.1282   0.9272   0
1238.340   0.5472   0.1272   0.9276   0
1238.400   0.3762   0.1167   0.9280   0
1238.459   0.4519   0.1214   0.9284   0
1238.519   0.5651   0.1283   0.9288   0
1238.579   0.5556   0.1277   0.9292   0
1238.639   0.5083   0.1249   0.9295   0
1238.699   0.4420   0.1205   0.9299   0
1238.758   0.5950   0.1301   0.9303   0
1238.818   0.4802   0.1232   0.9307   0
1238.878   0.4705   0.1228   0.9310   0
1238.938   0.5144   0.1264   0.9314   0
1238.998   0.5705   0.1308   0.9318   0
1239.058   0.5375   0.1284   0.9321   0
1239.117   0.4892   0.1251   0.9325   0
1239.177   0.5823   0.1311   0.9328   0
1239.237   0.4887   0.1248   0.9332   0
1239.297   0.7622   0.1397   0.9335   0
1239.357   0.5932   0.1295   0.9339   0
1239.417   0.3832   0.1169   0.9342   0
1239.476   0.5438   0.1269   0.9345   0
1239.536   0.4491   0.1208   0.9349   0
1239.596   0.6297   0.1316   0.9352   0
1239.656   0.6299   0.1317   0.9356   0
1239.716   0.5928   0.1295   0.9359   0
1239.775   0.6781   0.1343   0.9362   0
1239.835   0.5633   0.1280   0.9365   0
1239.895   0.5531   0.1271   0.9369   0
1239.955   0.6291   0.1314   0.9372   0
1240.015   0.5437   0.1264   0.9375   0
1240.074   0.5149   0.1250   0.9378   0
1240.134   0.6485   0.1326   0.9381   0
1240.194   0.8001   0.1404   0.9384   0
1240.254   0.5915   0.1294   0.9387   0
1240.314   0.5436   0.1264   0.9390   0
1240.374   0.6103   0.1300   0.9393   0
1240.433   0.5918   0.1293   0.9396   0
1240.493   0.6488   0.1325   0.9399   0
1240.553   0.5163   0.1250   0.9402   0
1240.613   0.4785   0.1227   0.9405   0
1240.673   0.5640   0.1277   0.9408   0
1240.733   0.4498   0.1205   0.9411   0
1240.792   0.4771   0.1228   0.9414   0
1240.852   0.4204   0.1192   0.9417   0
1240.912   0.6337   0.1323   0.9420   0
1240.972   0.6250   0.1328   0.9423   0
1241.032   0.6280   0.1335   0.9425   0
1241.091   0.6106   0.1323   0.9428   0
1241.151   0.7463   0.1396   0.9431   0
1241.211   0.7271   0.1381   0.9434   0
1241.271   0.6984   0.1363   0.9436   0
1241.331   0.6350   0.1321   0.9439   0
1241.391   0.6396   0.1316   0.9442   0
1241.450   0.7534   0.1376   0.9444   0
1241.510   0.6679   0.1335   0.9447   0
1241.570   0.7908   0.1392   0.9450   0
1241.630   0.7430   0.1368   0.9452   0
1241.690   0.8092   0.1406   0.9455   0
1241.750   0.7813   0.1391   0.9458   0
1241.809   0.8286   0.1413   0.9460   0
1241.869   0.9235   0.1457   0.9463   0
1241.929   0.6868   0.1346   0.9465   0
1241.989   0.6103   0.1299   0.9468   0
1242.049   0.7693   0.1384   0.9470   0
1242.108   0.7505   0.1374   0.9473   0
1242.168   0.9108   0.1451   0.9475   0
1242.228   0.7792   0.1388   0.9477   0
1242.288   0.7798   0.1391   0.9480   0
1242.348   0.9209   0.1459   0.9482   0
1242.407   0.6754   0.1334   0.9485   0
1242.467   0.7223   0.1361   0.9487   0
1242.527   0.5815   0.1279   0.9489   0
1242.587   0.7517   0.1374   0.9492   0
1242.647   0.7613   0.1379   0.9494   0
1242.707   0.6462   0.1316   0.9496   0
1242.766   0.7218   0.1356   0.9499   0
1242.826   0.7324   0.1361   0.9501   0
1242.886   0.7992   0.1398   0.9503   0
1242.946   0.6765   0.1336   0.9505   0
1243.006   0.9412   0.1470   0.9508   0
1243.066   0.8658   0.1430   0.9510   0
1243.125   0.8354   0.1414   0.9512   0
1243.185   0.8442   0.1416   0.9514   0
1243.245   0.9188   0.1457   0.9516   0
1243.305   0.7773   0.1383   0.9518   0
1243.365   0.7577   0.1374   0.9521   0
1243.424   0.8697   0.1429   0.9523   0
1243.484   0.8991   0.1446   0.9525   0
1243.544   0.8730   0.1432   0.9527   0
1243.604   0.9009   0.1445   0.9529   0
1243.664   0.8628   0.1427   0.9531   0
1243.724   0.8436   0.1416   0.9533   0
1243.783   0.7685   0.1379   0.9535   0
1243.843   0.9003   0.1448   0.9537   0
1243.903   0.9538   0.1471   0.9539   0
1243.963   0.9341   0.1460   0.9541   0
1244.023   1.0214   0.1524   0.9543   0
1244.082   1.1622   0.1590   0.9545   0
1244.142   0.9194   0.1475   0.9547   0
1244.202   0.9051   0.1470   0.9549   0
1244.262   0.9679   0.1521   0.9551   0
1244.322   1.0218   0.1547   0.9553   0
1244.382   1.1425   0.1588   0.9555   0
1244.441   1.1262   0.1569   0.9557   0
1244.501   1.0106   0.1518   0.9559   0
1244.561   1.0109   0.1516   0.9561   0
1244.621   1.2182   0.1600   0.9562   0
1244.681   0.7378   0.1366   0.9564   0
1244.740   1.0001   0.1486   0.9566   0
1244.800   0.8023   0.1391   0.9568   0
1244.860   0.8225   0.1406   0.9570   0
1244.920   0.8509   0.1419   0.9572   0
1244.980   0.8603   0.1423   0.9573   0
1245.040   0.8606   0.1421   0.9575   0
1245.099   0.8229   0.1402   0.9577   0
1245.159   0.7855   0.1381   0.9579   0
1245.219   1.0297   0.1501   0.9580   0
1245.279   0.9078   0.1443   0.9582   0
1245.339   1.1991   0.1573   0.9584   0
1245.398   1.0570   0.1514   0.9586   0
1245.458   1.0760   0.1518   0.9587   0
1245.518   0.9347   0.1456   0.9589   0
1245.578   1.1656   0.1557   0.9591   0
1245.638   1.2870   0.1605   0.9592   0
1245.698   1.1186   0.1536   0.9594   0
1245.757   1.2675   0.1600   0.9596   0
1245.817   1.3329   0.1629   0.9597   0
1245.877   1.2012   0.1571   0.9599   0
1245.937   1.2007   0.1570   0.9601   0
1245.997   1.2377   0.1581   0.9602   0
1246.057   1.1905   0.1563   0.9604   0
1246.116   1.1155   0.1535   0.9605   0
1246.176   1.3869   0.1643   0.9607   0
1246.236   1.2089   0.1573   0.9609   0
1246.296   1.1989   0.1570   0.9610   0
1246.356   1.1041   0.1529   0.9612   1
1246.415   1.2907   0.1608   0.9613   1
1246.475   0.9822   0.1472   0.9615   1
1246.535   1.0565   0.1505   0.9616   1
1246.595   1.2533   0.1592   0.9618   1
1246.655   1.1975   0.1565   0.9619   1
1246.714   1.0857   0.1517   0.9621   1
1246.774   1.1888   0.1557   0.9622   1
1246.834   1.1328   0.1541   0.9624   1
1246.894   0.9926   0.1475   0.9625   1
1246.954   0.9825   0.1470   0.9627   1
1247.014   1.1230   0.1534   0.9628   1
1247.073   1.2625   0.1596   0.9630   1
1247.133   0.9928   0.1479   0.9631   1
1247.193   1.0781   0.1517   0.9633   1
1247.253   1.0641   0.1511   0.9634   1
1247.313   1.1850   0.1584   0.9635   1
1247.373   1.1405   0.1572   0.9637   1
1247.432   0.9968   0.1506   0.9638   1
1247.492   1.1088   0.1551   0.9640   1
1247.552   1.1903   0.1595   0.9641   0
1247.612   1.1010   0.1552   0.9642   0
1247.672   0.9381   0.1467   0.9644   0
1247.731   1.0977   0.1522   0.9645   0
1247.791   0.9263   0.1444   0.9647   0
1247.851   1.1424   0.1543   0.9648   0
1247.911   0.9087   0.1438   0.9649   0
1247.971   0.7591   0.1361   0.9651   0
1248.031   0.9536   0.1459   0.9652   0
1248.090   0.8142   0.1393   0.9653   0
1248.150   1.0892   0.1406   0.9655   0
1248.210   0.9169   0.1439   0.9656   0
1248.270   0.9061   0.1434   0.9657   0
1248.330   1.0183   0.1486   0.9658   0
1248.390   1.0094   0.1482   0.9660   0
1248.449   0.9436   0.1449   0.9661   0
1248.509   0.9154   0.1438   0.9662   0
1248.569   0.7307   0.1345   0.9663   0
1248.629   0.7866   0.1376   0.9665   0
1248.689   0.9079   0.1434   0.9666   0
1248.748   0.8423   0.1400   0.9667   0
1248.808   0.8235   0.1390   0.9668   0
1248.868   0.7677   0.1366   0.9670   0
1248.928   0.6754   0.1321   0.9671   0
1248.988   0.7584   0.1362   0.9672   0
1249.047   0.6449   0.1300   0.9673   0
1249.107   0.4680   0.1199   0.9675   0
1249.167   0.7097   0.1334   0.9676   0
1249.227   0.5360   0.1240   0.9677   0
1249.287   0.5158   0.1242   0.9678   0
1249.347   0.4745   0.1221   0.9679   0
1249.406   0.4672   0.1217   0.9680   0
1249.466   0.6555   0.1322   0.9682   0
1249.526   0.3979   0.1167   0.9683   0
1249.586   0.3317   0.1127   0.9684   0
1249.646   0.4853   0.1225   0.9685   0
1249.706   0.3790   0.1146   0.9686   0
1249.765   0.4125   0.1165   0.9687   0
1249.825   0.4310   0.1175   0.9688   0
1249.885   0.5148   0.1227   0.9690   0
1249.945   0.4311   0.1172   0.9691   0
1250.005   0.4409   0.1181   0.9692   0
1250.064   0.5434   0.1242   0.9693   0
1250.124   0.6626   0.1310   0.9694   0
1250.184   0.5414   0.1240   0.9695   0
1250.244   0.6903   0.1321   0.9696   0
1250.304   0.4956   0.1209   0.9697   0
1250.364   0.7459   0.1353   0.9698   0
1250.423   0.5698   0.1255   0.9699   0
1250.483   0.4496   0.1182   0.9700   0
1250.543   0.4031   0.1158   0.9701   0
1250.603   0.6069   0.1273   0.9702   0
1250.663   0.7464   0.1344   0.9704   0
1250.722   0.7368   0.1345   0.9705   0
1250.782   0.7373   0.1343   0.9706   0
1250.842   0.5986   0.1273   0.9707   0
1250.902   0.8035   0.1381   0.9708   0
1250.962   0.9250   0.1437   0.9709   0
1251.022   0.9428   0.1443   0.9710   0
1251.081   0.8052   0.1382   0.9711   0
1251.141   0.9263   0.1438   0.9712   0
1251.201   0.7406   0.1350   0.9713   0
1251.261   1.0368   0.1492   0.9714   0
1251.321   0.8222   0.1388   0.9715   0
1251.380   0.8780   0.1417   0.9716   0
1251.440   0.9794   0.1463   0.9717   0
1251.500   0.8027   0.1375   0.9718   0
1251.560   0.9789   0.1459   0.9718   0
1251.620   0.7289   0.1337   0.9719   0
1251.680   0.9144   0.1435   0.9720   0
1251.739   1.0172   0.1478   0.9721   0
1251.799   0.8692   0.1410   0.9722   0
1251.859   0.9428   0.1445   0.9723   0
1251.919   0.8208   0.1383   0.9724   0
1251.979   0.9595   0.1452   0.9725   0
1252.038   0.7837   0.1369   0.9726   0
1252.098   0.7003   0.1326   0.9727   0
1252.158   0.7556   0.1355   0.9728   0
1252.218   0.7368   0.1343   0.9729   0
1252.278   0.7179   0.1330   0.9730   0
1252.338   0.8622   0.1416   0.9731   0
1252.397   0.6751   0.1329   0.9731   0
1252.457   0.6259   0.1307   0.9732   0
1252.517   0.8461   0.1422   0.9733   0
1252.577   0.6806   0.1331   0.9734   0
1252.637   0.6934   0.1364   0.9735   0
1252.697   0.6235   0.1321   0.9736   0
1252.756   0.6307   0.1317   0.9737   0
1252.816   0.6950   0.1336   0.9738   0
1252.876   0.6920   0.1335   0.9739   0
1252.936   0.7076   0.1346   0.9739   0
1252.996   0.8065   0.1392   0.9740   0
1253.055   0.8476   0.1403   0.9741   0
1253.115   0.9034   0.1419   0.9742   0
1253.175   0.8106   0.1378   0.9743   0
1253.235   0.8848   0.1414   0.9744   0
1253.295   0.8741   0.1399   0.9744   0
1253.354   0.7258   0.1331   0.9745   0
1253.414   1.0131   0.1469   0.9746   0
1253.474   0.7451   0.1343   0.9747   0
1253.534   0.7359   0.1341   0.9748   0
1253.594   0.4863   0.1203   0.9749   0
1253.654   0.6613   0.1301   0.9749   0
1253.714   0.4762   0.1196   0.9750   0
1253.773   0.3927   0.1140   0.9751   0
1253.833   0.4761   0.1196   0.9752   0
1253.893   0.5779   0.1256   0.9753   0
1253.953   0.5961   0.1260   0.9753   0
1254.013   0.7626   0.1353   0.9754   0
1254.072   0.8090   0.1375   0.9755   0
1254.132   0.7169   0.1327   0.9756   0
1254.192   0.7901   0.1363   0.9756   0
1254.252   0.7807   0.1361   0.9757   0
1254.312   0.8549   0.1398   0.9758   0
1254.371   0.8825   0.1412   0.9759   0
1254.431   0.9563   0.1444   0.9760   0
1254.491   0.8268   0.1379   0.9760   0
1254.551   0.8456   0.1390   0.9761   0
1254.611   0.9755   0.1456   0.9762   0
1254.671   0.9116   0.1422   0.9763   0
1254.730   0.7910   0.1366   0.9763   0
1254.790   0.7997   0.1370   0.9764   0
1254.850   0.9026   0.1417   0.9765   0
1254.910   0.7538   0.1346   0.9766   0
1254.970   0.7171   0.1331   0.9766   0
1255.030   0.7821   0.1358   0.9767   0
1255.089   0.7734   0.1353   0.9768   0
1255.149   0.8837   0.1408   0.9768   0
1255.209   0.8377   0.1387   0.9769   0
1255.269   0.8749   0.1400   0.9770   0
1255.329   1.0327   0.1480   0.9771   0
1255.388   0.9863   0.1455   0.9771   0
1255.448   0.7640   0.1346   0.9772   0
1255.508   0.8660   0.1401   0.9773   0
1255.568   0.6527   0.1292   0.9773   0
1255.628   0.8035   0.1372   0.9774   0
1255.688   0.6095   0.1282   0.9775   0
1255.747   0.5862   0.1271   0.9775   0
1255.807   0.5392   0.1245   0.9776   0
1255.867   0.5094   0.1222   0.9777   0
1255.927   0.3825   0.1146   0.9777   0
1255.987   0.5429   0.1248   0.9778   0
1256.046   0.5272   0.1237   0.9779   0
1256.106   0.5334   0.1228   0.9779   0
1256.166   0.6063   0.1264   0.9780   0
1256.226   0.5323   0.1223   0.9781   0
1256.286   0.5601   0.1237   0.9781   0
1256.346   0.6702   0.1299   0.9782   0
1256.405   0.6893   0.1309   0.9783   0
1256.465   0.7914   0.1361   0.9783   0
1256.525   0.7547   0.1344   0.9784   0
1256.585   0.8477   0.1386   0.9785   0
1256.645   1.0985   0.1509   0.9785   0
1256.704   0.7923   0.1363   0.9786   0
1256.764   0.8943   0.1415   0.9787   0
1256.824   0.7273   0.1331   0.9787   0
1256.884   0.8386   0.1385   0.9788   0
1256.944   0.8568   0.1394   0.9789   0
1257.004   0.8473   0.1385   0.9789   0
1257.063   0.9130   0.1420   0.9790   0
1257.123   0.9312   0.1430   0.9790   0
1257.183   0.7547   0.1343   0.9791   0
1257.243   0.7448   0.1336   0.9792   0
1257.303   0.9583   0.1437   0.9792   0
1257.362   0.8843   0.1407   0.9793   0
1257.422   0.8091   0.1367   0.9793   0
1257.482   0.7625   0.1346   0.9794   0
1257.542   0.7249   0.1325   0.9795   0
1257.602   0.9745   0.1450   0.9795   0
1257.662   0.8548   0.1396   0.9796   0
1257.721   0.7015   0.1329   0.9796   0
1257.781   0.8184   0.1391   0.9797   0
1257.841   0.8123   0.1393   0.9798   0
1257.901   0.8684   0.1418   0.9798   0
1257.961   0.7814   0.1376   0.9799   0
1258.021   0.8360   0.1407   0.9799   0
1258.080   0.9238   0.1435   0.9800   0
1258.140   0.9250   0.1427   0.9801   0
1258.200   0.9018   0.1415   0.9801   0
1258.260   0.9481   0.1437   0.9802   0
1258.320   0.7280   0.1324   0.9802   0
1258.379   0.7358   0.1331   0.9803   0
1258.439   0.8560   0.1389   0.9803   0
1258.499   0.7265   0.1325   0.9804   0
1258.559   0.9121   0.1415   0.9804   0
1258.619   0.7452   0.1337   0.9805   0
1258.678   0.7455   0.1340   0.9806   0
1258.738   0.8387   0.1383   0.9806   0
1258.798   0.7739   0.1349   0.9807   0
1258.858   0.7458   0.1337   0.9807   0
1258.918   0.8295   0.1378   0.9808   0
1258.978   0.8479   0.1388   0.9808   0
1259.037   0.6624   0.1290   0.9809   0
1259.097   0.7552   0.1342   0.9809   0
1259.157   0.6544   0.1287   0.9810   0
1259.217   0.8404   0.1384   0.9810   0
1259.277   0.5809   0.1247   0.9811   0
1259.337   0.6553   0.1290   0.9812   0
1259.396   0.4236   0.1153   0.9812   0
1259.456   0.3957   0.1132   0.9813   0
1259.516   0.3029   0.1066   0.9813   0
1259.576   0.4221   0.1152   0.9814   0
1259.636   0.5605   0.1236   0.9814   0
1259.695   0.5695   0.1237   0.9815   0
1259.755   0.4775   0.1188   0.9815   0
1259.815   0.5240   0.1214   0.9816   0
1259.875   0.2838   0.1057   0.9816   0
1259.935   0.3855   0.1127   0.9817   0
1259.995   0.3207   0.1080   0.9817   0
1260.054   0.2564   0.1033   0.9818   0
1260.114   0.1727   0.0971   0.9818   0
1260.174   0.1166   0.0922   0.9819   0
1260.234   0.0421   0.0854   0.9819   0
1260.294   0.0790   0.0888   0.9820   0
1260.354   0.0790   0.0886   0.9820   0
1260.413   0.0603   0.0872   0.9821   0
1260.473   0.0233   0.0835   0.9821   0
1260.533   0.0793   0.0889   0.9822   0
1260.593   0.0706   0.0880   0.9822   0
1260.653   0.1263   0.0931   0.9823   0
1260.712   0.1542   0.0954   0.9823   0
1260.772   0.2170   0.1014   0.9824   0
1260.832   0.3268   0.1100   0.9824   0
1260.892   0.4339   0.1175   0.9825   0
1260.952   0.4526   0.1182   0.9825   0
1261.011   0.4611   0.1186   0.9825   0
1261.071   0.4448   0.1188   0.9826   0
1261.131   0.5373   0.1250   0.9826   0
1261.191   0.4547   0.1194   0.9827   0
1261.251   0.5517   0.1245   0.9827   0
1261.311   0.4342   0.1167   0.9828   0
1261.370   0.4030   0.1151   0.9828   0
1261.430   0.4475   0.1177   0.9829   0
1261.490   0.5502   0.1226   0.9829   0
1261.550   0.5211   0.1209   0.9830   0
1261.610   0.2620   0.1035   0.9830   0
1261.670   0.4373   0.1160   0.9831   0
1261.729   0.3644   0.1109   0.9831   0
1261.789   0.4382   0.1156   0.9831   0
1261.849   0.5305   0.1212   0.9832   0
1261.909   0.4195   0.1146   0.9832   0
1261.969   0.5210   0.1210   0.9833   0
1262.028   0.5401   0.1216   0.9833   0
1262.088   0.3557   0.1101   0.9834   0
1262.148   0.3554   0.1106   0.9834   0
1262.208   0.2447   0.1024   0.9835   0
1262.268   0.1529   0.0949   0.9835   0
1262.328   0.1351   0.0934   0.9835   0
1262.387   0.0609   0.0870   0.9836   0
1262.447   0.0605   0.0868   0.9836   0
1262.507   0.0699   0.0876   0.9837   0
1262.567   0.0608   0.0868   0.9837   0
1262.627   0.0883   0.0894   0.9838   0
1262.687   0.0699   0.0878   0.9838   0
1262.746   0.0975   0.0903   0.9838   0
1262.806   0.1161   0.0916   0.9839   0
1262.866   0.1059   0.0907   0.9839   0
1262.926   0.1976   0.0983   0.9840   0
1262.986   0.4457   0.1161   0.9840   0
1263.045   0.4269   0.1151   0.9840   0
1263.105   0.6107   0.1251   0.9841   0
1263.165   0.7395   0.1322   0.9841   0
1263.225   0.6932   0.1300   0.9842   0
1263.285   0.7389   0.1323   0.9842   0
1263.344   0.7115   0.1303   0.9842   0
1263.404   0.7567   0.1330   0.9843   0
1263.464   0.7200   0.1310   0.9843   0
1263.524   0.8115   0.1363   0.9844   0
1263.584   0.6826   0.1295   0.9844   0
1263.644   0.7010   0.1303   0.9844   0
1263.703   0.8951   0.1403   0.9845   0
1263.763   0.9038   0.1404   0.9845   0
1263.823   0.7570   0.1334   0.9846   0
1263.883   0.7576   0.1333   0.9846   0
1263.943   0.8855   0.1395   0.9846   0
1264.003   0.6833   0.1298   0.9847   0
1264.062   0.8390   0.1369   0.9847   0
1264.122   0.7126   0.1312   0.9848   0
1264.182   0.8703   0.1412   0.9848   0
1264.242   0.8364   0.1391   0.9848   0
1264.302   0.8188   0.1384   0.9849   0
1264.361   0.9167   0.1438   0.9849   0
1264.421   0.8616   0.1408   0.9849   0
1264.481   0.8283   0.1390   0.9850   0
1264.541   0.9135   0.1422   0.9850   0
1264.601   0.6646   0.1279   0.9851   0
1264.661   0.8762   0.1390   0.9851   0
1264.720   0.8563   0.1381   0.9851   0
1264.780   0.7450   0.1324   0.9852   0
1264.840   0.9649   0.1425   0.9852   0
1264.900   1.0296   0.1463   0.9852   0
1264.960   0.9196   0.1410   0.9853   0
1265.019   1.0843   0.1485   0.9853   0
1265.079   0.7641   0.1336   0.9854   0
1265.139   0.7912   0.1349   0.9854   0
1265.199   0.9383   0.1419   0.9854   0
1265.259   1.0853   0.1487   0.9855   0
1265.319   0.9192   0.1411   0.9855   0
1265.378   1.0655   0.1475   0.9855   0
1265.438   0.9923   0.1442   0.9856   0
1265.498   0.9191   0.1410   0.9856   0
1265.558   0.9002   0.1402   0.9856   0
1265.618   0.9367   0.1419   0.9857   0
1265.677   0.8167   0.1361   0.9857   0
1265.737   0.8623   0.1380   0.9857   0
1265.797   0.8554   0.1276   0.9858   0
1265.857   0.9260   0.1414   0.9858   0
1265.917   1.0266   0.1458   0.9858   0
1265.977   0.8629   0.1386   0.9859   0
1266.036   0.8908   0.1398   0.9859   0
1266.096   0.8823   0.1395   0.9859   0
1266.156   0.9487   0.1446   0.9860   0
1266.216   1.0033   0.1475   0.9860   0
1266.276   0.9436   0.1460   0.9860   0
1266.335   0.8983   0.1452   0.9861   0
1266.395   0.9239   0.1467   0.9861   0
1266.455   0.6812   0.1333   0.9861   0
1266.515   0.7142   0.1338   0.9862   0
1266.575   0.7983   0.1360   0.9862   0
1266.635   0.8528   0.1377   0.9862   0
1266.694   0.8789   0.1393   0.9863   0
1266.754   0.5506   0.1225   0.9863   0
1266.814   0.7325   0.1318   0.9863   0
1266.874   0.7968   0.1349   0.9864   0
1266.934   0.5967   0.1241   0.9864   0
1266.994   0.6795   0.1289   0.9864   0
1267.053   0.6432   0.1274   0.9865   0
1267.113   0.8103   0.1360   0.9865   0
1267.173   0.7610   0.1333   0.9865   0
1267.233   0.7888   0.1352   0.9866   0
1267.293   0.7250   0.1318   0.9866   0
1267.352   0.7978   0.1349   0.9866   0
1267.412   0.8428   0.1373   0.9867   0
1267.472   0.7882   0.1350   0.9867   0
1267.532   0.8332   0.1369   0.9867   0
1267.592   1.0509   0.1470   0.9868   0
1267.651   0.8318   0.1368   0.9868   0
1267.711   0.8949   0.1398   0.9868   0
1267.771   0.8398   0.1372   0.9869   0
1267.831   0.8943   0.1400   0.9869   0
1267.891   0.7572   0.1329   0.9869   0
1267.951   0.9664   0.1433   0.9869   0
1268.010   0.9295   0.1412   0.9870   0
1268.070   0.7211   0.1316   0.9870   0
1268.130   0.8300   0.1363   0.9870   0
1268.190   0.7302   0.1315   0.9871   0
1268.250   0.8298   0.1368   0.9871   0
1268.310   0.9393   0.1421   0.9871   0
1268.369   0.8581   0.1384   0.9872   0
1268.429   0.8496   0.1378   0.9872   0
1268.489   0.9025   0.1407   0.9872   0
1268.549   0.8756   0.1404   0.9872   1
1268.609   1.0273   0.1489   0.9873   1
1268.668   1.1005   0.1541   0.9873   1
1268.728   0.9704   0.1486   0.9873   1
1268.788   0.6723   0.1324   0.9874   1
1268.848   1.0371   0.1497   0.9874   1
1268.908   0.8977   0.1420   0.9874   1
1268.968   0.9524   0.1438   0.9874   1
1269.027   0.8479   0.1380   0.9875   1
1269.087   0.9737   0.1439   0.9875   1
1269.147   0.9070   0.1405   0.9875   1
1269.207   0.8232   0.1370   0.9876   1
1269.267   1.0526   0.1503   0.9876   1
1269.327   1.0083   0.1489   0.9876   1
1269.386   1.0075   0.1506   0.9876   1
1269.446   0.8998   0.1457   0.9877   1
1269.506   1.0186   0.1531   0.9877   1
1269.566   0.7949   0.1400   0.9877   1
1269.626   0.8988   0.1445   0.9878   1
1269.685   1.0372   0.1487   0.9878   1
1269.745   0.8785   0.1418   0.9878   1
1269.805   0.8395   0.1393   0.9878   1
1269.865   0.7593   0.1348   0.9879   1
1269.925   0.8103   0.1360   0.9879   1
1269.984   0.9001   0.1403   0.9879   1
1270.044   0.8091   0.1357   0.9879   1
1270.104   0.8590   0.1388   0.9880   1
1270.164   0.9147   0.1409   0.9880   1
1270.224   0.8118   0.1365   0.9880   1
1270.284   0.9842   0.1444   0.9881   1
1270.343   0.8204   0.1369   0.9881   1
1270.403   0.9109   0.1409   0.9881   1
1270.463   0.8193   0.1364   0.9881   1
1270.523   0.8919   0.1395   0.9882   1
1270.583   0.9649   0.1434   0.9882   1
1270.643   0.8382   0.1376   0.9882   1
1270.702   0.8750   0.1395   0.9882   1
1270.762   0.9657   0.1434   0.9883   1
1270.822   0.9022   0.1408   0.9883   1
1270.882   0.9549   0.1653   0.9883   1
1270.942   0.9302   0.1643   0.9883   1
1271.001   0.9423   0.1648   0.9884   1
1271.061   0.9683   0.1663   0.9884   1
1271.121   0.7864   0.1564   0.9884   1
1271.181   0.8458   0.1584   0.9884   1
1271.241   0.7136   0.1518   0.9885   1
1271.301   0.8496   0.1606   0.9885   1
1271.360   0.6526   0.1508   0.9885   1
1271.420   1.0815   0.1770   0.9885   1
1271.480   0.6269   0.1504   0.9886   1
1271.540   0.8613   0.1638   0.9886   1
1271.600   0.7414   0.1572   0.9886   1
1271.659   0.9716   0.1709   0.9886   1
1271.719   0.7706   0.1612   0.9887   1
1271.779   0.5939   0.1506   0.9887   1
1271.839   0.7325   0.1602   0.9887   1
1271.899   0.8689   0.1670   0.9887   1
1271.959   0.8883   0.1657   0.9888   1
1272.018   0.8577   0.1617   0.9888   1
1272.078   0.8460   0.1607   0.9888   1
1272.138   0.9202   0.1646   0.9888   1
1272.198   0.9494   0.1654   0.9889   1
1272.258   0.7889   0.1565   0.9889   1
1272.318   0.8106   0.1582   0.9889   1
1272.377   0.8827   0.1614   0.9889   1
1272.437   0.8824   0.1617   0.9890   1
1272.497   0.8623   0.1613   0.9890   1
1272.557   1.1013   0.1759   0.9890   1
1272.617   1.0333   0.1723   0.9890   1
1272.676   1.1349   0.1783   0.9890   1
1272.736   0.7994   0.1604   0.9891   1
1272.796   0.7788   0.1596   0.9891   1
1272.856   0.7869   0.1598   0.9891   1
1272.916   0.9100   0.1655   0.9891   1
1272.975   1.1469   0.1764   0.9892   1
1273.035   0.7883   0.1569   0.9892   1
1273.095   0.8612   0.1611   0.9892   1
1273.155   0.9823   0.1675   0.9892   1
1273.215   0.9823   0.1669   0.9893   1
1273.275   0.7256   0.1534   0.9893   1
1273.334   0.8819   0.1621   0.9893   1
1273.394   0.9053   0.1631   0.9893   1
1273.454   0.9053   0.1629   0.9893   1
1273.514   0.8323   0.1596   0.9894   1
1273.574   0.8706   0.1619   0.9894   1
1273.634   0.6847   0.1527   0.9894   1
1273.693   0.7666   0.1598   0.9894   1
1273.753   0.7660   0.1619   0.9895   1
1273.813   0.9255   0.1715   0.9895   1
1273.873   1.0574   0.1781   0.9895   1
1273.933   0.9215   0.2024   0.9895   1
1273.992   0.9874   0.2089   0.9895   1
1274.052   0.9178   0.2032   0.9896   1
1274.112   0.6399   0.1821   0.9896   1
1274.172   1.0110   0.2078   0.9896   1
1274.232   1.0080   0.2075   0.9896   1
1274.292   0.7637   0.1907   0.9897   1
1274.351   0.9742   0.2045   0.9897   1
1274.411   0.8778   0.2018   0.9897   1
1274.471   0.9876   0.2111   0.9897   1
1274.531   1.0695   0.2227   0.9897   1
1274.591   0.8585   0.2085   0.9898   1
1274.651   1.0183   0.2162   0.9898   1
1274.710   1.0515   0.2179   0.9898   1
1274.770   0.7079   0.1922   0.9898   1
1274.830   0.9301   0.2089   0.9898   1
1274.890   0.9060   0.2054   0.9899   1
1274.950   0.9264   0.2045   0.9899   1
1275.009   0.8180   0.1951   0.9899   1
1275.069   0.8001   0.1929   0.9899   1
1275.129   0.7821   0.1926   0.9899   1
1275.189   0.9302   0.2024   0.9900   1
1275.249   0.8586   0.1966   0.9900   1
1275.308   0.8553   0.1972   0.9900   1
1275.368   0.8735   0.1981   0.9900   1
1275.428   0.9095   0.2006   0.9901   1
1275.488   0.9279   0.2023   0.9901   1
1275.548   0.8747   0.1984   0.9901   1
1275.608   0.8380   0.1968   0.9901   1
1275.667   0.9841   0.2061   0.9901   1
1275.727   1.0202   0.2082   0.9902   1
1275.787   0.9472   0.2033   0.9902   1
1275.847   0.8009   0.1927   0.9902   1
1275.907   1.0580   0.2464   0.9902   1
1275.967   0.8401   0.2779   0.9903   1
1276.026   0.9141   0.2853   0.9903   1
1276.086   0.6559   0.2593   0.9903   1
1276.146   0.8029   0.2749   0.9904   1
1276.206   0.5081   0.2421   0.9904   1
1276.266   0.9476   0.2889   0.9906   1
1276.325   1.1670   0.3070   0.9909   1
1276.385   0.8739   0.2822   0.9920   1
1276.445   0.7613   0.2707   0.9949   1
