# Best-fit normalized data and profile from VoigtFit
# column 1 : Wavelength
# column 2 : Normalized flux
# column 3 : Normalized error
# column 4 : Best-fit profile
# column 5 : Pixel mask, 1=included, 0=excluded
1154.898   0.6746   0.6819   0.9912   0
1154.958   0.5140   0.5729   0.9860   0
1155.018   0.5011   0.5963   0.9849   0
1155.078   0.7017   0.7399   0.9845   0
1155.137   0.3121   0.5562   0.9843   0
1155.197   0.5332   0.6645   0.9841   0
1155.257   0.3037   0.5531   0.9840   0
1155.317   0.3301   0.6272   0.9840   0
1155.377   0.6350   0.7363   0.9839   0
1155.437   0.1332   0.5476   0.9839   0
1155.496   0.3412   0.6240   0.9838   0
1155.556   0.1471   0.4888   0.9838   0
1155.616   0.8831   0.7277   0.9838   0
1155.676   0.4945   0.6867   0.9837   0
1155.736   0.5954   0.6843   0.9837   0
1155.795   0.3768   0.5917   0.9837   0
1155.855   0.4955   0.5761   0.9836   0
1155.915   0.2893   0.6071   0.9836   0
1155.975   0.6838   0.7204   0.9836   0
1156.035   0.5200   0.6266   0.9835   0
1156.094   0.5151   0.6245   0.9835   0
1156.154   0.5497   0.6036   0.9835   0
1156.214   0.3423   0.5749   0.9834   0
1156.274   0.4551   0.6924   0.9834   0
1156.334   0.1739   0.5368   0.9834   0
1156.394   0.5494   0.6485   0.9833   0
1156.453   0.7185   0.5825   0.9833   0
1156.513   0.2372   0.5843   0.9833   0
1156.573   0.6497   0.7403   0.9832   0
1156.633   0.5504   0.6734   0.9832   0
1156.693   0.5128   0.5836   0.9832   0
1156.753   0.5595   0.5920   0.9831   0
1156.812   0.5306   0.6480   0.9831   0
1156.872   0.1929   0.5888   0.9831   0
1156.932   0.9132   0.7213   0.9830   0
1156.992   0.4882   0.6389   0.9830   0
1157.052   0.3221   0.5343   0.9830   0
1157.111   0.1248   0.5385   0.9829   0
1157.171   0.2352   0.6313   0.9829   0
1157.231   0.4262   0.6348   0.9829   0
1157.291   0.5521   0.6591   0.9828   0
1157.351   0.3351   0.5672   0.9828   0
1157.411   0.4179   0.6242   0.9828   0
1157.470   0.6939   0.7413   0.9827   0
1157.530   0.4055   0.6608   0.9827   0
1157.590   0.7148   0.6704   0.9827   0
1157.650   0.3655   0.5468   0.9826   0
1157.710   0.3590   0.6090   0.9826   0
1157.769   0.2106   0.6222   0.9826   0
1157.829   0.7456   0.6966   0.9825   0
1157.889   1.1052   0.8005   0.9825   0
1157.949   0.1928   0.5158   0.9825   0
1158.009   0.3834   0.6111   0.9824   0
1158.069   0.4431   0.6920   0.9824   0
1158.128   0.5388   0.6741   0.9824   0
1158.188   0.3828   0.6077   0.9823   0
1158.248   0.3684   0.5654   0.9823   0
1158.308   0.4928   0.6755   0.9822   0
1158.368   0.0210   0.5784   0.9822   0
1158.427   0.4016   0.6621   0.9822   0
1158.487   0.3200   0.6148   0.9821   0
1158.547   0.3012   0.5851   0.9821   0
1158.607   0.7718   0.6942   0.9821   0
1158.667   0.4522   0.7121   0.9820   0
1158.727   0.6471   0.6657   0.9820   0
1158.786   0.2371   0.5747   0.9820   0
1158.846   0.5719   0.6115   0.9819   0
1158.906   0.6931   0.6712   0.9819   0
1158.966   0.5030   0.6843   0.9818   0
1159.026   0.2920   0.5742   0.9818   0
1159.085   0.7718   0.7429   0.9818   0
1159.145   0.4086   0.5598   0.9817   0
1159.205   0.5791   0.6720   0.9817   0
1159.265   0.2508   0.6117   0.9817   0
1159.325   0.7204   0.6581   0.9816   0
1159.385   0.7741   0.7502   0.9816   0
1159.444   0.4847   0.6785   0.9815   0
1159.504   0.3583   0.7059   0.9815   0
1159.564   1.2327   1.0350   0.9815   0
1159.624   0.5413   0.6608   0.9814   0
1159.684   0.3487   0.5924   0.9814   0
1159.744   0.4928   0.5857   0.9814   0
1159.803   0.5640   0.6223   0.9813   1
1159.863   0.2498   0.6318   0.9813   1
1159.923   0.3538   0.5976   0.9812   1
1159.983   0.1962   0.5597   0.9812   1
1160.043   0.6041   0.6206   0.9812   1
1160.102   0.4598   0.6242   0.9811   1
1160.162   0.3707   0.6837   0.9811   1
1160.222   0.0788   0.5093   0.9810   1
1160.282   0.6455   0.6572   0.9810   1
1160.342   0.2056   0.5358   0.9810   1
1160.401   1.0554   0.8167   0.9809   1
1160.461   0.6391   0.7073   0.9809   1
1160.521   0.5212   0.6501   0.9808   1
1160.581   0.5044   0.6626   0.9808   1
1160.641   0.4453   0.6275   0.9808   1
1160.701   1.8343   0.8557   0.9807   1
1160.760   0.0441   0.5839   0.9807   1
1160.820   0.1286   0.5580   0.9806   1
1160.880   0.2481   0.5895   0.9806   1
1160.940   0.9813   0.7069   0.9806   1
1161.000   0.4852   0.6437   0.9805   1
1161.060   0.8353   0.7568   0.9805   1
1161.119   1.6592   0.7982   0.9804   1
1161.179   0.8136   0.6683   0.9804   1
1161.239   0.9147   0.6494   0.9804   1
1161.299   0.6343   0.6933   0.9803   1
1161.359   0.4678   0.7346   0.9803   1
1161.418   1.1901   0.8496   0.9802   1
1161.478   0.6147   0.6940   0.9802   1
1161.538   0.3866   0.5793   0.9802   1
1161.598   0.9933   0.7635   0.9801   1
1161.658   0.6116   0.7471   0.9801   1
1161.718   0.3997   0.6837   0.9800   1
1161.777   0.3154   0.5975   0.9800   1
1161.837   1.0471   0.7465   0.9799   1
1161.897   0.3426   0.6129   0.9799   1
1161.957   0.8591   0.7953   0.9799   1
1162.017   0.4246   0.6408   0.9798   1
1162.077   0.5456   0.6737   0.9798   1
1162.136   0.4786   0.5898   0.9797   1
1162.196   0.6129   0.6605   0.9797   1
1162.256   0.8245   0.8211   0.9796   1
1162.316   0.4446   0.6366   0.9796   1
1162.376   0.4617   0.6865   0.9795   1
1162.435   1.5339   0.8668   0.9795   1
1162.495   0.5513   0.6495   0.9795   1
1162.555   0.3892   0.6708   0.9794   1
1162.615   0.5027   0.6653   0.9794   1
1162.675   0.7532   0.7317   0.9793   1
1162.734   0.4080   0.5721   0.9793   1
1162.794   0.3089   0.6843   0.9792   1
1162.854   1.1903   1.0132   0.9792   1
1162.914   0.6997   0.7788   0.9791   1
1162.974   0.1951   0.5951   0.9791   1
1163.034   0.9677   0.6744   0.9791   1
1163.093   1.4627   0.8244   0.9790   1
1163.153   0.4922   0.6817   0.9790   1
1163.213   0.6011   0.6689   0.9789   1
1163.273   0.2154   0.6324   0.9789   1
1163.333   0.8323   0.6645   0.9788   1
1163.393   0.9955   0.6962   0.9788   1
1163.452   0.4381   0.7044   0.9787   1
1163.512   0.6763   0.7923   0.9787   1
1163.572   0.9095   0.8155   0.9786   1
1163.632   1.5359   0.8241   0.9786   1
1163.692   0.7496   0.8780   0.9785   1
1163.751   0.7676   0.9192   0.9785   1
1163.811   0.7127   0.8166   0.9784   1
1163.871   0.1727   0.5933   0.9784   1
1163.931   0.7338   0.6648   0.9783   1
1163.991   0.7828   0.6804   0.9783   1
1164.051   0.0832   0.5948   0.9783   1
1164.110   1.0176   0.7826   0.9782   1
1164.170   0.9407   0.7154   0.9782   1
1164.230   0.1438   0.5157   0.9781   1
1164.290   1.2370   0.7957   0.9781   1
1164.350   0.8994   0.8425   0.9780   1
1164.409   0.6346   0.6411   0.9780   1
1164.469   0.8249   0.7493   0.9779   1
1164.529   0.4661   0.5938   0.9779   1
1164.589   0.5818   0.6923   0.9778   1
1164.649   0.5429   0.7006   0.9778   1
1164.709   0.4778   0.6366   0.9777   1
1164.768   0.4505   0.7673   0.9777   1
1164.828   0.6000   0.7064   0.9776   1
1164.888   0.7364   0.7450   0.9776   1
1164.948   0.3675   0.7879   0.9775   1
1165.008   0.0835   0.6756   0.9775   1
1165.068   0.2241   0.7411   0.9774   1
1165.127   0.6337   0.7964   0.9774   1
1165.187   0.4629   0.7573   0.9773   1
1165.247   1.3281   1.0388   0.9773   1
1165.307   1.0214   0.9084   0.9772   1
1165.367   0.2218   0.7405   0.9771   1
1165.426   0.5796   0.7276   0.9771   1
1165.486   1.1859   0.8316   0.9770   1
1165.546   1.0776   0.9844   0.9770   1
1165.606   0.9534   0.8392   0.9769   1
1165.666   0.9165   0.8401   0.9769   1
1165.725   0.7937   0.7198   0.9768   1
1165.785   0.7055   0.6815   0.9768   1
1165.845   0.3578   0.6622   0.9767   1
1165.905   0.7907   0.7356   0.9767   1
1165.965   0.5876   0.6513   0.9766   1
1166.025   0.5035   0.5979   0.9766   1
1166.084   0.7994   0.6765   0.9765   1
1166.144   0.8531   0.8313   0.9765   1
1166.204   0.9393   0.7319   0.9764   1
1166.264   0.4682   0.6240   0.9763   1
1166.324   0.4269   0.5797   0.9763   1
1166.384   1.0183   0.7522   0.9762   1
1166.443   0.2636   0.6969   0.9762   1
1166.503   0.4467   0.6629   0.9761   1
1166.563   0.1405   0.5565   0.9761   1
1166.623   0.6950   0.6707   0.9760   1
1166.683   0.6194   0.6857   0.9760   1
1166.742   0.1813   0.6230   0.9759   1
1166.802   0.3927   0.6314   0.9758   1
1166.862   1.0899   0.7707   0.9758   1
1166.922   1.0887   0.7027   0.9757   1
1166.982   0.9213   0.7734   0.9757   1
1167.042   0.0639   0.5669   0.9756   1
1167.101   1.2194   0.7968   0.9756   1
1167.161   0.5741   0.6923   0.9755   1
1167.221   0.5711   0.6614   0.9754   1
1167.281   1.0351   0.7272   0.9754   1
1167.341   0.4681   0.7103   0.9753   1
1167.401   1.2951   0.8477   0.9753   1
1167.460   0.0493   0.5221   0.9752   1
1167.520   0.4338   0.5774   0.9752   1
1167.580   0.6259   0.7276   0.9751   1
1167.640   0.0720   0.5850   0.9750   1
1167.700   1.1872   0.7561   0.9750   1
1167.759   1.2004   0.8441   0.9749   1
1167.819   0.4837   0.6334   0.9749   1
1167.879   1.6039   0.9976   0.9748   1
1167.939   0.2612   0.7588   0.9747   1
1167.999   0.1463   0.6700   0.9747   1
1168.058   0.7380   0.8077   0.9746   1
1168.118   0.7017   0.7330   0.9746   1
1168.178   0.5130   0.6703   0.9745   1
1168.238   1.0645   0.8578   0.9744   1
1168.298   1.1657   0.7248   0.9744   1
1168.358   0.6079   0.6629   0.9743   1
1168.417   0.0568   0.4714   0.9742   1
1168.477   0.6123   0.6896   0.9742   1
1168.537   0.9231   0.7957   0.9741   1
1168.597   0.5500   0.7996   0.9741   0
1168.657   0.4098   0.7373   0.9740   0
1168.717   1.8369   0.8941   0.9739   0
1168.776   0.8758   0.7843   0.9739   0
1168.836   0.3357   0.7774   0.9738   0
1168.896   0.9028   0.8247   0.9737   0
1168.956   0.6984   0.8334   0.9737   0
1169.016   0.3262   0.5482   0.9736   0
1169.075   0.2695   0.5818   0.9735   0
1169.135   0.6355   0.7342   0.9735   0
1169.195   0.3496   0.6226   0.9734   0
1169.255   0.1916   0.5765   0.9733   0
1169.315   0.6326   0.6285   0.9733   0
1169.375   0.7933   0.6954   0.9732   0
1169.434   0.9772   0.8105   0.9731   0
1169.494   0.1587   0.5433   0.9731   0
1169.554   0.7339   0.7274   0.9730   0
1169.614   0.1248   0.4925   0.9729   0
1169.674   0.6406   0.6752   0.9729   0
1169.733   0.3585   0.7044   0.9728   0
1169.793   0.2900   0.6177   0.9727   0
1169.853   0.2870   0.6160   0.9727   0
1169.913   0.3122   0.5394   0.9726   0
1169.973   0.5160   0.6419   0.9725   0
1170.033   1.1215   0.8353   0.9725   0
1170.092   0.7806   0.6953   0.9724   0
1170.152   0.6420   0.6544   0.9723   0
1170.212   0.5894   0.6201   0.9723   0
1170.272   0.6721   0.6947   0.9722   0
1170.332   0.6080   0.7447   0.9721   0
1170.391   0.7062   0.6803   0.9721   0
1170.451   0.3469   0.6142   0.9720   0
1170.511   0.3283   0.5577   0.9719   0
1170.571   0.8744   0.6777   0.9718   0
1170.631   0.6062   0.7602   0.9718   0
1170.691   0.2539   0.5826   0.9717   0
1170.750   0.1551   0.5443   0.9716   0
1170.810   0.5294   0.6100   0.9716   0
1170.870   0.4798   0.6415   0.9715   0
1170.930   0.3142   0.6680   0.9714   0
1170.990   0.5258   0.6521   0.9713   0
1171.049   0.4097   0.6032   0.9713   0
1171.109   0.7369   0.6606   0.9712   0
1171.169   0.3323   0.5871   0.9711   0
1171.229   0.2020   0.6069   0.9710   0
1171.289   0.5278   0.6501   0.9710   0
1171.349   0.8262   0.7136   0.9709   0
1171.408   0.3427   0.5437   0.9708   0
1171.468   0.2060   0.5269   0.9707   0
1171.528   -0.0659   0.5090   0.9707   0
1171.588   0.7104   0.6979   0.9706   0
1171.648   0.6317   0.7213   0.9705   0
1171.708   1.0756   0.6577   0.9704   0
1171.767   0.3494   0.5610   0.9704   0
1171.827   0.0624   0.5614   0.9703   0
1171.887   -0.0157   0.5172   0.9702   0
1171.947   0.1191   0.5459   0.9701   0
1172.007   0.8083   0.6083   0.9701   0
1172.066   0.7721   0.7148   0.9700   0
1172.126   0.0735   0.5482   0.9699   0
1172.186   0.7617   0.6873   0.9698   0
1172.246   0.8267   0.6843   0.9697   0
1172.306   1.0487   0.6653   0.9697   0
1172.365   0.2088   0.5282   0.9696   0
1172.425   -0.0504   0.5086   0.9695   0
1172.485   0.4259   0.6295   0.9694   0
1172.545   0.7280   0.6822   0.9693   0
1172.605   0.5703   0.5840   0.9693   0
1172.665   0.1574   0.5447   0.9692   0
1172.724   0.2395   0.6102   0.9691   0
1172.784   0.8203   0.6859   0.9690   0
1172.844   0.6537   0.6809   0.9689   0
1172.904   0.2213   0.5121   0.9689   0
1172.964   0.6422   0.6709   0.9688   0
1173.024   0.3672   0.6514   0.9687   0
1173.083   0.5896   0.6789   0.9686   0
1173.143   0.4096   0.6320   0.9685   0
1173.203   0.3276   0.5761   0.9684   0
1173.263   0.7959   0.7017   0.9684   0
1173.323   0.0739   0.5633   0.9683   0
1173.382   -0.0655   0.4594   0.9682   0
1173.442   0.7202   0.6974   0.9681   0
1173.502   0.5563   0.5944   0.9680   0
1173.562   0.6377   0.6513   0.9679   0
1173.622   0.4926   0.7181   0.9678   0
1173.682   0.3941   0.5943   0.9677   0
1173.741   -0.0774   0.4588   0.9677   0
1173.801   0.4062   0.5721   0.9676   0
1173.861   0.6195   0.6542   0.9675   0
1173.921   1.0802   0.8125   0.9674   0
1173.981   0.5060   0.6203   0.9673   0
1174.041   0.3610   0.5882   0.9672   0
1174.100   0.2032   0.5233   0.9671   0
1174.160   0.2550   0.5699   0.9670   0
1174.220   0.1850   0.5993   0.9670   0
1174.280   0.5086   0.6190   0.9669   0
1174.340   0.1407   0.5319   0.9668   0
1174.399   0.5553   0.5695   0.9667   0
1174.459   0.4291   0.6330   0.9666   0
1174.519   0.7635   0.7596   0.9665   0
1174.579   0.2461   0.5675   0.9664   0
1174.639   0.2396   0.5724   0.9663   0
1174.698   0.5013   0.5746   0.9662   0
1174.758   0.0187   0.5020   0.9661   0
1174.818   0.0506   0.5452   0.9660   0
1174.878   0.1624   0.5771   0.9659   0
1174.938   0.1192   0.5447   0.9658   0
1174.998   0.2747   0.5363   0.9657   0
1175.057   0.3717   0.6014   0.9656   0
1175.117   0.6472   0.7435   0.9656   0
1175.177   0.5328   0.6356   0.9655   0
1175.237   0.1097   0.5436   0.9654   0
1175.297   0.2558   0.5463   0.9653   0
1175.357   0.2419   0.5489   0.9652   0
1175.416   0.5634   0.6951   0.9651   0
1175.476   0.5232   0.6164   0.9650   0
1175.536   0.3609   0.6073   0.9649   0
1175.596   0.2106   0.5413   0.9648   0
1175.656   0.5134   0.6180   0.9647   0
1175.715   0.2953   0.6304   0.9646   0
1175.775   0.1156   0.5456   0.9645   0
1175.835   0.0220   0.4954   0.9644   0
1175.895   0.2938   0.5259   0.9643   0
1175.955   0.1343   0.5350   0.9642   0
1176.015   0.0542   0.5646   0.9641   0
1176.074   0.2923   0.5586   0.9640   0
1176.134   0.1974   0.5253   0.9639   0
1176.194   0.4304   0.5519   0.9638   0
1176.254   0.4110   0.5935   0.9637   0
1176.314   0.3879   0.6295   0.9635   0
1176.373   -0.0007   0.4957   0.9634   0
1176.433   0.1780   0.5421   0.9633   0
1176.493   0.0472   0.4551   0.9632   0
1176.553   0.1269   0.5433   0.9631   0
1176.613   0.0881   0.5609   0.9630   0
1176.673   0.3157   0.5976   0.9629   0
1176.732   0.2960   0.5749   0.9628   0
1176.792   0.2168   0.5384   0.9627   0
1176.852   0.3858   0.6318   0.9626   0
1176.912   0.1980   0.6040   0.9625   0
1176.972   0.1342   0.5369   0.9624   0
1177.031   0.3994   0.6101   0.9623   0
1177.091   -0.0016   0.4555   0.9622   0
1177.151   0.1220   0.5342   0.9620   0
1177.211   0.1087   0.6031   0.9619   0
1177.271   0.0390   0.4870   0.9618   0
1177.331   0.1487   0.5166   0.9617   0
1177.390   0.0268   0.4462   0.9616   0
1177.450   -0.0638   0.4550   0.9615   0
1177.510   0.0670   0.5415   0.9614   0
1177.570   0.0429   0.4887   0.9612   0
1177.630   0.1516   0.5946   0.9611   0
1177.689   1.0452   0.7753   0.9610   0
1177.749   0.4904   0.6758   0.9609   0
1177.809   0.1993   0.5932   0.9608   0
1177.869   0.2688   0.5589   0.9607   0
1177.929   0.6043   0.6554   0.9606   0
1177.989   0.0279   0.4481   0.9604   0
1178.048   0.3922   0.6352   0.9603   0
1178.108   0.2083   0.5806   0.9602   0
1178.168   0.0326   0.5016   0.9601   0
1178.228   0.2480   0.5669   0.9600   0
1178.288   0.1407   0.4868   0.9598   0
1178.348   0.1571   0.5176   0.9597   0
1178.407   0.0634   0.5402   0.9596   0
1178.467   0.5141   0.6370   0.9595   0
1178.527   0.3761   0.5988   0.9594   0
1178.587   0.3035   0.5242   0.9592   0
1178.647   0.2843   0.5988   0.9591   0
1178.706   0.3080   0.6391   0.9590   0
1178.766   0.3882   0.5906   0.9589   0
1178.826   0.0309   0.4997   0.9587   0
1178.886   0.3363   0.5542   0.9586   0
1178.946   0.4661   0.5969   0.9585   0
1179.005   0.3068   0.6382   0.9583   0
1179.065   0.6766   0.6523   0.9582   0
1179.125   0.4974   0.6113   0.9581   0
1179.185   0.2266   0.5447   0.9580   0
1179.245   0.5915   0.6532   0.9578   0
1179.305   0.9201   0.7678   0.9577   0
1179.365   0.5438   0.6116   0.9576   0
1179.424   0.4669   0.6242   0.9574   0
1179.484   0.6488   0.5965   0.9573   0
1179.544   0.4900   0.6040   0.9572   0
1179.604   0.6772   0.8270   0.9570   0
1179.664   0.2605   0.5487   0.9569   0
1179.723   0.9522   0.7152   0.9568   0
1179.783   0.5755   0.6314   0.9566   0
1179.843   0.9193   0.6937   0.9565   0
1179.903   0.7174   0.6938   0.9564   0
1179.963   0.8354   0.6514   0.9562   0
1180.022   0.8415   0.6744   0.9561   0
1180.082   0.7873   0.6273   0.9560   0
1180.142   0.4883   0.5632   0.9558   0
1180.202   0.5172   0.7307   0.9557   0
1180.262   1.3060   0.7473   0.9555   0
1180.322   1.1557   0.7203   0.9554   0
1180.381   0.7514   0.6598   0.9553   0
1180.441   0.1445   0.5240   0.9551   0
1180.501   0.7957   0.7474   0.9550   0
1180.561   0.5038   0.6055   0.9548   0
1180.621   0.6474   0.6608   0.9547   0
1180.681   0.2130   0.4883   0.9545   0
1180.740   0.2536   0.5398   0.9544   0
1180.800   1.0202   0.7856   0.9542   0
1180.860   0.6658   0.6599   0.9541   0
1180.920   0.5347   0.5985   0.9539   0
1180.980   0.2579   0.5118   0.9538   0
1181.039   0.5373   0.6031   0.9537   0
1181.099   0.8488   0.7799   0.9535   0
1181.159   1.0814   0.7403   0.9534   0
1181.219   0.5685   0.6135   0.9532   0
1181.279   0.9410   0.6308   0.9530   0
1181.339   0.6048   0.6257   0.9529   0
1181.398   0.4984   0.7074   0.9527   0
1181.458   0.3946   0.5346   0.9526   0
1181.518   0.2513   0.5382   0.9524   0
1181.578   0.6429   0.6322   0.9523   0
1181.638   0.4866   0.6813   0.9521   0
1181.698   0.8137   0.6604   0.9520   0
1181.757   0.4472   0.5522   0.9518   0
1181.817   0.6973   0.6594   0.9516   0
1181.877   0.9436   0.6340   0.9515   0
1181.937   0.5665   0.6293   0.9513   0
1181.997   0.3477   0.6178   0.9512   0
1182.056   0.7049   0.6501   0.9510   0
1182.116   0.7835   0.6428   0.9508   0
1182.176   0.6753   0.5674   0.9507   0
1182.236   0.6769   0.6683   0.9505   0
1182.296   0.7748   0.7387   0.9503   0
1182.355   1.0347   0.6975   0.9502   0
1182.415   0.9900   0.7262   0.9500   0
1182.475   0.5901   0.5629   0.9498   0
1182.535   0.6742   0.6997   0.9497   0
1182.595   0.6096   0.8686   0.9495   0
1182.655   1.1695   0.7888   0.9493   0
1182.714   0.8066   0.6598   0.9492   0
1182.774   0.9181   0.6342   0.9490   0
1182.834   0.6166   0.6329   0.9488   0
1182.894   0.4308   0.6230   0.9486   0
1182.954   0.6451   0.6430   0.9485   0
1183.014   0.8880   0.6503   0.9483   0
1183.073   0.5058   0.5518   0.9481   0
1183.133   1.2079   0.7472   0.9479   0
1183.193   1.2979   0.8181   0.9478   0
1183.253   0.6144   0.6035   0.9476   0
1183.313   0.9481   0.7114   0.9474   0
1183.372   0.5765   0.5726   0.9472   0
1183.432   1.0272   0.6745   0.9470   0
1183.492   1.0879   0.7606   0.9469   0
1183.552   1.1221   0.7032   0.9467   0
1183.612   0.3403   0.5547   0.9465   0
1183.672   0.4067   0.5159   0.9463   0
1183.731   1.2403   0.7316   0.9461   0
1183.791   0.4818   0.6763   0.9459   0
1183.851   1.0455   0.8309   0.9457   0
1183.911   0.6528   0.6705   0.9456   0
1183.971   0.5291   0.5365   0.9454   0
1184.030   0.2984   0.5161   0.9452   0
1184.090   0.8567   0.7461   0.9450   0
1184.150   1.0089   0.6933   0.9448   0
1184.210   0.8629   0.6393   0.9446   0
1184.270   1.1665   0.6201   0.9444   0
1184.330   0.2359   0.5201   0.9442   0
1184.389   0.2263   0.5807   0.9440   0
1184.449   1.0942   0.7090   0.9438   0
1184.509   0.2346   0.5543   0.9436   0
1184.569   0.2523   0.4887   0.9434   0
1184.629   0.3142   0.5939   0.9432   0
1184.688   1.0745   0.7155   0.9430   0
1184.748   0.1247   0.5268   0.9428   0
1184.808   0.9654   0.6682   0.9426   0
1184.868   0.0020   0.4099   0.9424   0
1184.928   0.3996   0.5473   0.9422   0
1184.988   0.2308   0.5943   0.9420   0
1185.047   0.4928   0.5803   0.9418   0
1185.107   0.5876   0.6101   0.9415   0
1185.167   0.5947   0.5683   0.9413   0
1185.227   0.7399   0.6278   0.9411   0
1185.287   0.1104   0.5397   0.9409   0
1185.346   0.5951   0.5920   0.9407   0
1185.406   1.0939   0.6939   0.9405   0
1185.466   0.9069   0.5675   0.9403   0
1185.526   0.3632   0.5610   0.9400   0
1185.586   1.3194   0.8025   0.9398   0
1185.646   0.4334   0.5562   0.9396   0
1185.705   0.5443   0.6118   0.9394   0
1185.765   0.3824   0.5257   0.9392   0
1185.825   0.5461   0.6138   0.9389   0
1185.885   0.2653   0.5636   0.9387   0
1185.945   0.8586   0.6386   0.9385   0
1186.005   0.4615   0.5762   0.9382   0
1186.064   0.1025   0.4531   0.9380   0
1186.124   0.6131   0.6331   0.9378   0
1186.184   0.0057   0.5005   0.9376   0
1186.244   0.2266   0.4888   0.9373   0
1186.304   0.1645   0.5169   0.9371   0
1186.363   0.5068   0.5420   0.9369   0
1186.423   0.4503   0.5658   0.9366   0
1186.483   0.3563   0.6138   0.9364   0
1186.543   0.4042   0.5471   0.9361   0
1186.603   0.5671   0.6101   0.9359   0
1186.662   0.0679   0.4184   0.9357   0
1186.722   0.0908   0.4694   0.9354   0
1186.782   1.1694   0.7253   0.9352   0
1186.842   0.4732   0.5777   0.9349   0
1186.902   0.4672   0.5580   0.9347   0
1186.962   0.2802   0.4976   0.9344   0
1187.021   0.5918   0.5965   0.9342   0
1187.081   0.2528   0.5651   0.9339   0
1187.141   0.9877   0.6809   0.9337   0
1187.201   0.5860   0.6030   0.9334   0
1187.261   0.6935   0.5579   0.9331   0
1187.321   0.4593   0.5884   0.9329   0
1187.380   1.2585   0.7639   0.9326   0
1187.440   0.6401   0.6037   0.9324   0
1187.500   0.4705   0.6271   0.9321   0
1187.560   0.5784   0.5404   0.9318   0
1187.620   0.4737   0.5671   0.9316   0
1187.679   1.1129   0.7378   0.9313   0
1187.739   0.4093   0.5576   0.9310   0
1187.799   0.4852   0.5671   0.9308   0
1187.859   0.5446   0.5592   0.9305   0
1187.919   0.3548   0.5455   0.9302   0
1187.979   0.8744   0.6701   0.9299   0
1188.038   0.5633   0.5743   0.9297   0
1188.098   0.3566   0.5088   0.9294   0
1188.158   0.4749   0.5326   0.9291   0
1188.218   0.3622   0.5406   0.9288   0
1188.278   0.2893   0.5501   0.9285   0
1188.338   0.2348   0.5218   0.9283   0
1188.397   0.1764   0.4507   0.9280   0
1188.457   0.8177   0.5605   0.9277   0
1188.517   0.8781   0.6127   0.9274   0
1188.577   0.7074   0.6916   0.9271   0
1188.637   0.1261   0.6000   0.9268   0
1188.696   0.1189   0.4690   0.9265   0
1188.756   0.5851   0.5249   0.9262   0
1188.816   0.4745   0.5770   0.9259   0
1188.876   1.2359   0.7335   0.9256   0
1188.936   0.5989   0.6117   0.9253   0
1188.995   0.2646   0.4980   0.9250   0
1189.055   0.6210   0.5393   0.9247   0
1189.115   0.3933   0.5426   0.9244   0
1189.175   0.7366   0.6403   0.9241   0
1189.235   0.4248   0.5401   0.9238   0
1189.295   0.6570   0.5906   0.9235   0
1189.354   0.8459   0.5911   0.9231   0
1189.414   0.2344   0.5205   0.9228   0
1189.474   0.2711   0.5420   0.9225   0
1189.534   0.9216   0.6865   0.9222   0
1189.594   0.5968   0.6058   0.9219   0
1189.654   0.4557   0.5178   0.9215   0
1189.713   0.7574   0.6209   0.9212   0
1189.773   0.7833   0.6346   0.9209   0
1189.833   0.2659   0.5067   0.9205   0
1189.893   0.0436   0.4365   0.9202   0
1189.953   0.6625   0.5648   0.9199   0
1190.012   0.1695   0.5316   0.9195   0
1190.072   0.3019   0.5594   0.9192   0
1190.132   0.2444   0.4903   0.9189   0
1190.192   0.0432   0.4205   0.9185   0
1190.252   0.0735   0.4555   0.9182   0
1190.312   -0.0227   0.4368   0.9178   0
1190.371   -0.0786   0.4308   0.9175   0
1190.431   0.1316   0.4538   0.9171   0
1190.491   0.0061   0.4302   0.9168   0
1190.551   0.2296   0.4580   0.9164   0
1190.611   0.1091   0.4553   0.9160   0
1190.670   -0.0735   0.4336   0.9157   0
1190.730   0.0147   0.4321   0.9153   0
1190.790   -0.0731   0.3940   0.9149   0
1190.850   0.0410   0.4059   0.9146   0
1190.910   0.2180   0.4670   0.9142   0
1190.970   0.5181   0.6551   0.9138   0
1191.029   0.5629   0.6646   0.9135   0
1191.089   0.0154   0.4295   0.9131   0
1191.149   0.0017   0.3934   0.9127   0
1191.209   0.4169   0.5327   0.9123   0
1191.269   0.2600   0.5474   0.9119   0
1191.328   0.3961   0.5179   0.9115   0
1191.388   0.6981   0.5912   0.9111   0
1191.448   0.4567   0.4915   0.9107   0
1191.508   0.2727   0.5324   0.9103   0
1191.568   0.4197   0.5623   0.9099   0
1191.628   -0.0630   0.3863   0.9095   0
1191.687   0.3575   0.5208   0.9091   0
1191.747   0.2057   0.4336   0.9087   0
1191.807   0.1236   0.4491   0.9083   0
1191.867   0.2502   0.5448   0.9079   0
1191.927   0.0978   0.4583   0.9075   0
1191.986   0.1936   0.4800   0.9071   0
1192.046   0.1577   0.4336   0.9067   0
1192.106   0.0077   0.4257   0.9062   0
1192.166   -0.0753   0.4242   0.9058   0
1192.226   0.0120   0.4223   0.9054   0
1192.286   0.0210   0.4134   0.9049   0
1192.345   0.1066   0.4061   0.9045   0
1192.405   -0.0752   0.3865   0.9041   0
1192.465   -0.0691   0.4232   0.9036   0
1192.525   -0.0707   0.3858   0.9032   0
1192.585   -0.0733   0.3848   0.9027   0
1192.645   0.1987   0.4415   0.9023   0
1192.704   -0.0677   0.3859   0.9018   0
1192.764   0.2892   0.5380   0.9014   0
1192.824   -0.0624   0.3843   0.9009   0
1192.884   0.0635   0.4357   0.9005   0
1192.944   0.0163   0.3740   0.9000   0
1193.003   0.1380   0.4734   0.8995   0
1193.063   0.0191   0.4677   0.8991   0
1193.123   -0.0703   0.3836   0.8986   0
1193.183   0.1463   0.4431   0.8981   0
1193.243   0.0250   0.3764   0.8976   0
1193.302   0.1053   0.4545   0.8971   0
1193.362   -0.0675   0.4223   0.8966   0
1193.422   0.0485   0.4104   0.8962   0
1193.482   0.0661   0.4419   0.8957   0
1193.542   0.3951   0.4717   0.8952   0
1193.602   -0.0636   0.3858   0.8947   0
1193.661   0.1385   0.5016   0.8942   0
1193.721   0.2024   0.4772   0.8936   0
1193.781   -0.0255   0.4119   0.8931   0
1193.841   0.0130   0.3746   0.8926   0
1193.901   -0.0733   0.3821   0.8921   0
1193.961   0.1575   0.4965   0.8916   0
1194.020   0.1163   0.4396   0.8910   0
1194.080   0.1168   0.4399   0.8905   0
1194.140   0.3305   0.4871   0.8900   0
1194.200   0.4327   0.5521   0.8894   0
1194.260   0.3115   0.5659   0.8889   0
1194.319   0.4098   0.5175   0.8883   0
1194.379   0.0828   0.4479   0.8878   0
1194.439   0.5318   0.5119   0.8872   0
1194.499   0.4805   0.5268   0.8867   0
1194.559   0.6095   0.6152   0.8861   0
1194.619   0.4743   0.5347   0.8855   0
1194.678   0.0900   0.4356   0.8850   0
1194.738   0.1599   0.4183   0.8844   0
1194.798   0.1869   0.4567   0.8838   0
1194.858   0.0335   0.4435   0.8832   0
1194.918   -0.0795   0.3748   0.8826   0
1194.978   0.0041   0.4122   0.8820   0
1195.037   -0.0721   0.3450   0.8814   0
1195.097   -0.0627   0.3709   0.8808   0
1195.157   -0.0608   0.4059   0.8802   0
1195.217   0.0343   0.4052   0.8796   0
1195.277   0.2385   0.4621   0.8790   0
1195.336   0.1091   0.3916   0.8784   0
1195.396   0.0994   0.4338   0.8778   0
1195.456   0.1326   0.4901   0.8771   0
1195.516   0.1084   0.4254   0.8765   0
1195.576   0.1834   0.4634   0.8759   0
1195.635   0.1450   0.4189   0.8752   0
1195.695   0.3832   0.5296   0.8746   0
1195.755   -0.0654   0.4159   0.8739   0
1195.815   0.1031   0.4361   0.8732   0
1195.875   0.3455   0.5122   0.8726   0
1195.935   0.6134   0.4952   0.8719   0
1195.994   0.2076   0.4614   0.8712   0
1196.054   0.3725   0.5516   0.8706   0
1196.114   0.2175   0.4527   0.8699   0
1196.174   0.1083   0.4222   0.8692   0
1196.234   0.2221   0.4288   0.8685   0
1196.294   0.4713   0.5158   0.8678   0
1196.353   0.3949   0.5451   0.8671   0
1196.413   0.4603   0.4932   0.8664   0
1196.473   0.4100   0.5030   0.8656   0
1196.533   0.5829   0.4988   0.8649   0
1196.593   0.5059   0.5244   0.8642   0
1196.652   0.4514   0.5380   0.8635   0
1196.712   0.2629   0.4864   0.8627   0
1196.772   0.1153   0.4701   0.8620   0
1196.832   0.0602   0.3867   0.8612   0
1196.892   0.0200   0.4551   0.8605   0
1196.952   0.4251   0.5278   0.8597   0
1197.011   0.8440   0.6493   0.8589   0
1197.071   0.5838   0.5634   0.8581   0
1197.131   0.4584   0.4524   0.8574   0
1197.191   0.2698   0.4954   0.8566   0
1197.251   0.5305   0.6162   0.8558   0
1197.310   0.5647   0.5498   0.8550   0
1197.370   -0.0219   0.3930   0.8542   0
1197.430   0.2411   0.4664   0.8534   0
1197.490   0.4259   0.5255   0.8525   0
1197.550   0.9337   0.6817   0.8517   0
1197.610   0.6630   0.5999   0.8509   0
1197.669   0.3488   0.4927   0.8500   0
1197.729   0.9619   0.5719   0.8492   0
1197.789   0.0868   0.4227   0.8483   0
1197.849   1.5990   0.7403   0.8474   0
1197.909   0.4939   0.5420   0.8466   0
1197.969   0.6815   0.5852   0.8457   0
1198.028   0.8759   0.5686   0.8448   0
1198.088   0.7230   0.5684   0.8439   0
1198.148   1.1061   0.6423   0.8430   0
1198.208   0.5672   0.5634   0.8421   0
1198.268   0.2634   0.5141   0.8412   0
1198.327   0.3803   0.4517   0.8403   0
1198.387   0.7615   0.5913   0.8393   0
1198.447   0.7977   0.6651   0.8384   0
1198.507   0.5962   0.7094   0.8375   1
1198.567   0.5917   0.5622   0.8365   1
1198.626   0.7836   0.5365   0.8355   1
1198.686   0.6627   0.5294   0.8346   1
1198.746   0.8720   0.6640   0.8336   1
1198.806   0.3616   0.4863   0.8326   1
1198.866   0.8142   0.5882   0.8316   1
1198.926   1.0431   0.6011   0.8306   1
1198.985   0.6764   0.5574   0.8296   1
1199.045   1.0302   0.7265   0.8286   1
1199.105   0.7903   0.6184   0.8275   1
1199.165   1.2296   0.6953   0.8265   1
1199.225   1.4056   0.5787   0.8254   1
1199.285   1.7432   0.6913   0.8244   1
1199.344   1.3069   0.7350   0.8233   1
1199.404   1.0319   0.6260   0.8222   1
1199.464   1.3696   0.6506   0.8211   1
1199.524   1.9784   0.6959   0.8200   1
1199.584   1.2264   0.6012   0.8189   1
1199.643   1.2044   0.7024   0.8178   1
1199.703   1.2954   0.6709   0.8167   1
1199.763   1.5248   0.6782   0.8156   1
1199.823   0.8190   0.5420   0.8144   1
1199.883   1.0998   0.5984   0.8132   1
1199.943   1.9088   0.8488   0.8121   1
1200.002   1.1106   0.6476   0.8109   1
1200.062   1.2590   0.6351   0.8097   1
1200.122   1.1221   0.6188   0.8085   1
1200.182   0.7650   0.5986   0.8073   1
1200.242   0.7379   0.6321   0.8061   1
1200.302   0.6925   0.5532   0.8048   1
1200.361   0.9490   0.6217   0.8036   1
1200.421   0.5195   0.4853   0.8023   1
1200.481   0.8986   0.5963   0.8011   1
1200.541   0.7313   0.5997   0.7998   1
1200.601   0.3342   0.4952   0.7985   1
1200.660   0.3304   0.5004   0.7972   1
1200.720   0.2636   0.4388   0.7959   1
1200.780   0.3190   0.4779   0.7946   1
1200.840   0.2261   0.4763   0.7932   1
1200.900   0.3595   0.5064   0.7919   0
1200.959   0.6318   0.5486   0.7905   0
1201.019   0.2782   0.4293   0.7891   0
1201.079   0.2383   0.4846   0.7877   0
1201.139   0.1608   0.5022   0.7863   0
1201.199   0.3398   0.4850   0.7849   0
1201.259   0.0985   0.3999   0.7835   0
1201.318   0.2558   0.4421   0.7820   0
1201.378   -0.0594   0.3524   0.7806   0
1201.438   -0.0639   0.3848   0.7791   0
1201.498   0.0253   0.3753   0.7776   0
1201.558   -0.0576   0.3523   0.7761   0
1201.618   0.3083   0.4140   0.7746   0
1201.677   0.0400   0.3756   0.7731   0
1201.737   -0.0618   0.3835   0.7715   0
1201.797   0.2986   0.4560   0.7700   0
1201.857   0.0140   0.3784   0.7684   0
1201.917   0.1216   0.3751   0.7668   0
1201.976   0.0524   0.3844   0.7652   0
1202.036   0.1512   0.4615   0.7636   0
1202.096   0.1365   0.4085   0.7619   0
1202.156   0.1465   0.4107   0.7603   0
1202.216   0.0202   0.3471   0.7586   0
1202.276   -0.0669   0.4231   0.7569   0
1202.335   -0.0782   0.5020   0.7552   0
1202.395   0.0259   0.5017   0.7535   0
1202.455   0.0660   0.5385   0.7518   0
1202.515   0.0117   0.4502   0.7500   0
1202.575   0.2525   0.4513   0.7482   0
1202.634   0.1540   0.4474   0.7465   0
1202.694   0.1749   0.4237   0.7447   0
1202.754   -0.0709   0.3461   0.7428   0
1202.814   -0.0043   0.3464   0.7410   0
1202.874   0.0139   0.3702   0.7391   0
1202.934   -0.0644   0.3789   0.7372   0
1202.993   0.1992   0.4143   0.7353   0
1203.053   0.3869   0.4605   0.7334   0
1203.113   0.1522   0.3895   0.7315   0
1203.173   0.0274   0.3791   0.7295   0
1203.233   0.3475   0.4994   0.7275   0
1203.292   0.3358   0.5135   0.7255   0
1203.352   0.4071   0.4770   0.7235   0
1203.412   0.2461   0.3960   0.7215   0
1203.472   0.5097   0.4926   0.7194   0
1203.532   0.0347   0.4117   0.7173   0
1203.592   0.2723   0.4539   0.7152   0
1203.651   0.4270   0.4784   0.7131   0
1203.711   0.5517   0.4672   0.7109   0
1203.771   0.0800   0.3975   0.7088   0
1203.831   0.2125   0.4719   0.7066   0
1203.891   0.2631   0.4432   0.7043   0
1203.950   0.2274   0.4513   0.7021   0
1204.010   0.1031   0.3852   0.6998   0
1204.070   -0.0970   0.3431   0.6976   0
1204.130   0.5189   0.5733   0.6952   0
1204.190   -0.0281   0.3767   0.6929   0
1204.250   0.4648   0.5067   0.6905   0
1204.309   0.5026   0.4705   0.6882   0
1204.369   0.1471   0.4056   0.6857   0
1204.429   0.0774   0.4543   0.6833   0
1204.489   0.2452   0.4430   0.6808   0
1204.549   0.1334   0.4230   0.6783   0
1204.609   0.4980   0.4732   0.6758   0
1204.668   0.3433   0.4852   0.6733   0
1204.728   0.2680   0.5079   0.6707   0
1204.788   0.3395   0.4706   0.6681   0
1204.848   0.5708   0.4883   0.6655   0
1204.908   0.2856   0.4199   0.6628   0
1204.967   0.3914   0.4784   0.6601   0
1205.027   0.3894   0.5278   0.6574   0
1205.087   0.2944   0.4394   0.6547   0
1205.147   0.1062   0.3944   0.6519   0
1205.207   0.1949   0.3857   0.6491   0
1205.266   0.0294   0.3666   0.6463   0
1205.326   0.6355   0.5529   0.6434   0
1205.386   0.2648   0.4088   0.6405   0
1205.446   0.1179   0.4247   0.6376   0
1205.506   0.3497   0.4298   0.6346   0
1205.566   0.3457   0.4639   0.6316   0
1205.625   0.1879   0.4805   0.6286   0
1205.685   0.2857   0.4652   0.6255   0
1205.745   0.2473   0.4621   0.6224   0
1205.805   0.2408   0.4102   0.6193   0
1205.865   0.2366   0.4431   0.6161   0
1205.925   0.3145   0.4947   0.6129   0
1205.984   -0.0930   0.3365   0.6098   0
1206.044   -0.0250   0.3701   0.6065   0
1206.104   -0.0212   0.3285   0.6032   0
1206.164   -0.0045   0.3568   0.5998   0
1206.224   -0.0032   0.4101   0.5964   0
1206.283   -0.0893   0.3324   0.5931   0
1206.343   -0.0918   0.3330   0.5896   0
1206.403   0.0341   0.3541   0.5861   0
1206.463   0.0541   0.3892   0.5826   0
1206.523   -0.0888   0.3663   0.5790   0
1206.583   -0.0027   0.3577   0.5754   0
1206.642   -0.0786   0.3343   0.5718   0
1206.702   -0.0038   0.3270   0.5681   0
1206.762   -0.0687   0.3332   0.5644   0
1206.822   0.0286   0.4079   0.5606   0
1206.882   0.1982   0.4134   0.5568   0
1206.942   0.0172   0.3544   0.5529   0
1207.001   0.2674   0.3916   0.5491   0
1207.061   -0.0759   0.3345   0.5451   0
1207.121   0.0256   0.4562   0.5411   0
1207.181   0.0129   0.3564   0.5371   0
1207.241   0.0101   0.3559   0.5330   0
1207.300   0.0395   0.3520   0.5290   0
1207.360   0.1373   0.4123   0.5248   0
1207.420   0.1682   0.4689   0.5206   0
1207.480   0.0536   0.3747   0.5164   0
1207.540   0.2398   0.4168   0.5121   0
1207.599   0.1304   0.3977   0.5078   0
1207.659   0.0231   0.3858   0.5034   0
1207.719   -0.1254   0.3641   0.4990   0
1207.779   0.0915   0.4243   0.4945   0
1207.839   0.3137   0.4730   0.4899   0
1207.899   -0.0668   0.3329   0.4854   0
1207.958   0.1351   0.4018   0.4808   0
1208.018   -0.0487   0.4080   0.4761   0
1208.078   -0.0500   0.3623   0.4714   0
1208.138   0.3029   0.4443   0.4666   0
1208.198   -0.1336   0.3058   0.4618   0
1208.258   -0.1337   0.3310   0.4569   0
1208.317   0.0636   0.4176   0.4521   0
1208.377   0.0587   0.4034   0.4471   0
1208.437   -0.0368   0.3535   0.4421   0
1208.497   0.0470   0.3470   0.4371   0
1208.557   -0.0305   0.3614   0.4319   0
1208.616   0.2677   0.4760   0.4269   0
1208.676   -0.1062   0.3293   0.4216   0
1208.736   0.0492   0.3710   0.4164   0
1208.796   -0.0442   0.3302   0.4111   0
1208.856   0.2243   0.4242   0.4057   0
1208.916   -0.1094   0.3621   0.4003   0
1208.975   0.3170   0.4820   0.3949   0
1209.035   0.0340   0.3928   0.3894   0
1209.095   0.0858   0.3613   0.3838   0
1209.155   0.1279   0.3981   0.3782   0
1209.215   0.0643   0.4420   0.3726   0
1209.274   0.2830   0.4419   0.3670   0
1209.334   0.5880   0.5216   0.3612   0
1209.394   0.4226   0.4641   0.3554   0
1209.454   0.4381   0.4819   0.3496   0
1209.514   0.4785   0.5424   0.3437   1
1209.574   0.5542   0.5117   0.3378   1
1209.633   0.4972   0.4807   0.3319   1
1209.693   0.3390   0.4238   0.3259   1
1209.753   0.1537   0.4163   0.3199   1
1209.813   0.2415   0.4963   0.3138   1
1209.873   0.0118   0.3762   0.3076   1
1209.932   0.1794   0.4323   0.3016   1
1209.992   0.2671   0.4059   0.2954   1
1210.052   0.5672   0.4994   0.2891   1
1210.112   0.6640   0.5580   0.2829   1
1210.172   0.2117   0.4192   0.2766   1
1210.232   0.3838   0.4888   0.2703   1
1210.291   0.4630   0.4605   0.2640   1
1210.351   0.4388   0.5222   0.2576   1
1210.411   0.3681   0.5184   0.2513   1
1210.471   0.0933   0.4001   0.2448   1
1210.531   0.5921   0.5491   0.2384   1
1210.590   0.4805   0.4449   0.2321   1
1210.650   0.3380   0.4423   0.2256   1
1210.710   0.4149   0.5276   0.2192   1
1210.770   0.4602   0.4696   0.2127   1
1210.830   0.8215   0.5540   0.2063   1
1210.890   -0.0665   0.3250   0.1998   1
1210.949   0.5182   0.4966   0.1935   1
1211.009   0.0833   0.4631   0.1871   1
1211.069   0.2851   0.4386   0.1806   1
1211.129   0.1604   0.4273   0.1742   1
1211.189   0.5014   0.4803   0.1679   1
1211.249   0.4318   0.4838   0.1615   1
1211.308   0.3112   0.5251   0.1554   1
1211.368   0.3313   0.4323   0.1491   1
1211.428   0.3529   0.4786   0.1429   1
1211.488   0.2351   0.4177   0.1367   1
1211.548   0.3829   0.4718   0.1306   1
1211.607   0.0225   0.4187   0.1247   1
1211.667   0.5855   0.5332   0.1188   1
1211.727   0.2584   0.4628   0.1129   1
1211.787   -0.0350   0.3382   0.1071   1
1211.847   0.0499   0.4029   0.1014   1
1211.906   0.4093   0.5058   0.0959   1
1211.966   0.4249   0.4907   0.0904   1
1212.026   0.2261   0.4466   0.0850   1
1212.086   0.1916   0.3790   0.0798   1
1212.146   0.6815   0.5116   0.0746   1
1212.206   0.1744   0.4874   0.0696   1
1212.266   0.4010   0.5191   0.0648   1
1212.325   0.3380   0.4618   0.0602   1
1212.385   0.2858   0.4193   0.0556   1
1212.445   0.4467   0.5203   0.0512   1
1212.505   0.5345   0.5656   0.0470   1
1212.565   0.5179   0.4967   0.0429   1
1212.624   0.2873   0.4861   0.0391   1
1212.684   0.1595   0.4203   0.0355   1
1212.744   0.3683   0.4856   0.0320   1
1212.804   0.2439   0.4770   0.0287   1
1212.864   -0.0578   0.4493   0.0256   1
1212.923   0.3011   0.4594   0.0227   1
1212.983   0.2992   0.4632   0.0200   1
1213.043   0.1668   0.4978   0.0175   1
1213.103   0.3729   0.5611   0.0152   1
1213.163   0.2580   0.5118   0.0131   1
1213.223   0.1805   0.4514   0.0112   1
1213.282   0.3047   0.5597   0.0095   1
1213.342   0.2303   0.5471   0.0079   1
1213.402   0.3917   0.6543   0.0066   1
1213.462   0.0869   0.5821   0.0054   1
1213.522   0.6662   0.6093   0.0043   0
1213.582   0.4596   0.5306   0.0034   0
1213.641   0.4541   0.4737   0.0027   0
1213.701   0.5006   0.5360   0.0021   0
1213.761   0.3928   0.3981   0.0016   0
1213.821   0.7940   0.5653   0.0012   0
1213.881   0.5805   0.5014   0.0008   0
1213.940   0.5164   0.7965   0.0006   0
1214.000   0.7496   0.7930   0.0004   0
1214.060   0.6104   0.5923   0.0003   0
1214.120   2.8705   0.8228   0.0002   0
1214.180   2.2987   0.7336   0.0001   0
1214.240   1.6828   0.7378   0.0001   0
1214.299   3.8625   1.0252   0.0000   0
1214.359   3.6959   0.9412   0.0000   0
1214.419   4.7996   1.0415   0.0000   0
1214.479   6.0022   1.1145   0.0000   0
1214.539   10.8151   1.5203   0.0000   0
1214.599   21.9645   2.6568   0.0000   0
1214.658   61.2956   4.2053   0.0000   0
1214.718   210.7539   7.0407   0.0000   0
1214.778   654.2780   9.5553   0.0000   0
1214.838   1256.0525   13.4443   0.0000   0
1214.898   1938.8083   18.0622   0.0000   0
1214.957   2804.8450   19.5559   0.0000   0
1215.017   3727.1638   22.2021   0.0000   0
1215.077   4946.3608   23.4708   0.0000   0
1215.137   6339.8672   28.2102   0.0000   0
1215.197   7222.1221   33.1968   0.0000   0
1215.256   7914.5464   31.7939   0.0000   0
1215.316   8497.0420   32.7620   0.0000   0
1215.376   9111.8398   31.3846   0.0000   0
1215.436   9329.3848   34.4213   0.0000   0
1215.496   9140.9473   37.1622   0.0000   0
1215.556   9202.5596   34.1846   0.0000   0
1215.615   8825.8906   33.4787   0.0000   0
1215.675   8674.3545   30.8014   0.0000   0
1215.735   7901.0410   31.8316   0.0000   0
1215.795   7207.8838   33.3813   0.0000   0
1215.855   6469.4927   28.9147   0.0000   0
1215.915   5453.4292   26.7281   0.0000   0
1215.974   4144.6411   21.8985   0.0000   0
1216.034   2877.3240   20.1853   0.0000   0
1216.094   2055.2427   18.7638   0.0000   0
1216.154   1426.3527   14.5522   0.0000   0
1216.214   798.4068   11.6063   0.0000   0
1216.273   283.2736   7.7280   0.0000   0
1216.333   51.8065   5.2262   0.0000   0
1216.393   17.4814   3.0429   0.0000   0
1216.453   9.8163   1.6705   0.0000   0
1216.513   7.8271   1.3659   0.0000   0
1216.573   6.7364   1.0807   0.0000   0
1216.632   2.9965   0.8967   0.0000   0
1216.692   3.9443   0.9734   0.0000   0
1216.752   3.0297   0.7979   0.0000   0
1216.812   2.4580   0.8190   0.0000   0
1216.872   3.1318   0.7881   0.0000   0
1216.931   1.7679   0.7722   0.0000   0
1216.991   1.3274   0.8122   0.0000   0
1217.051   1.0418   3.1880   0.0000   0
1217.111   1.2372   0.6553   0.0000   0
1217.171   0.7163   0.4919   0.0000   0
1217.231   0.3009   0.5044   0.0000   0
1217.290   0.3943   0.5432   0.0000   0
1217.350   0.3472   0.4851   0.0000   0
1217.410   0.2340   0.4824   0.0000   0
1217.470   0.5356   0.4559   0.0000   0
1217.530   0.4815   0.4953   0.0000   0
1217.589   0.6043   0.5596   0.0000   0
1217.649   0.3855   0.4849   0.0000   0
1217.709   0.7556   0.5166   0.0000   0
1217.769   0.3751   0.4581   0.0000   0
1217.829   0.2383   0.4348   0.0000   0
1217.889   0.2075   0.4917   0.0000   0
1217.948   0.5749   0.5030   0.0000   0
1218.008   0.7616   0.5232   0.0000   0
1218.068   0.1208   0.3665   0.0000   0
1218.128   0.2753   0.4438   0.0000   0
1218.188   0.2777   0.4770   0.0000   0
1218.247   0.2632   0.4355   0.0000   0
1218.307   0.5963   0.4942   0.0000   0
1218.367   -0.0335   0.3145   0.0000   0
1218.427   0.0580   0.3666   0.0000   0
1218.487   0.0083   0.3983   0.0000   0
1218.547   0.2564   0.4081   0.0000   0
1218.606   0.0864   0.4021   0.0000   0
1218.666   0.2048   0.3951   0.0000   0
1218.726   0.1392   0.3895   0.0000   0
1218.786   0.4458   0.5017   0.0000   0
1218.846   -0.0274   0.3448   0.0000   0
1218.906   0.0187   0.3529   0.0000   0
1218.965   0.0848   0.3437   0.0000   0
1219.025   0.3357   0.4289   0.0000   0
1219.085   0.0258   0.3987   0.0000   0
1219.145   -0.0309   0.3406   0.0000   0
1219.205   0.1360   0.3842   0.0000   0
1219.264   0.0021   0.3287   0.0000   0
1219.324   0.3416   0.4326   0.0000   1
1219.384   0.0671   0.4275   0.0000   1
1219.444   -0.0713   0.3265   0.0000   1
1219.504   0.1002   0.3645   0.0000   1
1219.563   0.2803   0.3847   0.0000   1
1219.623   -0.0619   0.3240   0.0000   1
1219.683   -0.1329   0.3250   0.0000   1
1219.743   0.3112   0.4280   0.0000   1
1219.803   -0.0554   0.3230   0.0000   1
1219.863   0.2082   0.3593   0.0000   1
1219.922   -0.0193   0.3272   0.0000   1
1219.982   -0.0824   0.3446   0.0001   1
1220.042   0.0807   0.3582   0.0001   1
1220.102   0.2466   0.4068   0.0001   1
1220.162   0.0705   0.3294   0.0002   1
1220.222   0.0629   0.3644   0.0003   1
1220.281   0.1249   0.3876   0.0004   1
1220.341   0.0185   0.3455   0.0005   1
1220.401   0.3464   0.4059   0.0007   1
1220.461   0.0990   0.3263   0.0009   1
1220.521   0.1847   0.4008   0.0012   1
1220.580   0.1415   0.4212   0.0016   1
1220.640   -0.0187   0.3347   0.0020   1
1220.700   0.0281   0.3361   0.0026   1
1220.760   -0.0062   0.3161   0.0032   1
1220.820   0.1612   0.3811   0.0039   1
1220.880   0.2708   0.4199   0.0048   1
1220.939   0.1206   0.3685   0.0057   1
1220.999   0.2038   0.3582   0.0069   1
1221.059   0.0974   0.3270   0.0081   1
1221.119   0.1980   0.3797   0.0095   1
1221.179   -0.0539   0.3553   0.0111   1
1221.239   -0.0764   0.3088   0.0128   1
1221.298   -0.0804   0.3182   0.0146   1
1221.358   0.3111   0.3782   0.0167   1
1221.418   0.5708   0.4695   0.0189   1
1221.478   0.0775   0.4081   0.0213   1
1221.538   0.1581   0.4009   0.0239   1
1221.597   0.1945   0.3782   0.0266   1
1221.657   0.0507   0.3240   0.0296   1
1221.717   0.0543   0.3673   0.0327   1
1221.777   -0.1370   0.3197   0.0360   1
1221.837   0.1868   0.3982   0.0395   1
1221.896   0.0703   0.3471   0.0430   1
1221.956   0.1597   0.3397   0.0468   1
1222.016   0.1175   0.3421   0.0508   1
1222.076   0.1289   0.3987   0.0549   1
1222.136   0.0677   0.3669   0.0592   1
1222.196   0.1505   0.3670   0.0636   1
1222.255   0.1543   0.3271   0.0681   1
1222.315   0.3767   0.4300   0.0728   1
1222.375   0.1253   0.4089   0.0777   1
1222.435   0.2050   0.4041   0.0826   1
1222.495   0.2022   0.3734   0.0877   1
1222.555   0.0441   0.2949   0.0929   1
1222.614   0.2819   0.4131   0.0981   1
1222.674   0.2279   0.4142   0.1035   1
1222.734   0.0605   0.3627   0.1091   1
1222.794   0.1351   0.3672   0.1147   1
1222.854   -0.0075   0.3030   0.1203   1
1222.913   0.3453   0.4169   0.1260   1
1222.973   -0.0367   0.3815   0.1318   1
1223.033   0.3040   0.3963   0.1377   1
1223.093   0.2754   0.3818   0.1437   1
1223.153   0.3297   0.3543   0.1497   1
1223.213   0.1277   0.3480   0.1558   1
1223.272   0.1198   0.3667   0.1618   1
1223.332   0.1540   0.3514   0.1679   1
1223.392   0.6683   0.4639   0.1741   1
1223.452   0.5674   0.3994   0.1804   1
1223.512   0.0576   0.3610   0.1866   1
1223.571   0.6622   0.4954   0.1928   1
1223.631   0.7399   0.4369   0.1990   1
1223.691   0.3899   0.4772   0.2053   1
1223.751   0.3525   0.3957   0.2116   1
1223.811   0.3984   0.4291   0.2179   1
1223.871   0.1603   0.3885   0.2243   1
1223.930   0.3970   0.3952   0.2305   1
1223.990   0.4172   0.4426   0.2368   1
1224.050   0.3730   0.3637   0.2431   1
1224.110   0.1498   0.3430   0.2493   1
1224.170   0.5327   0.4559   0.2556   1
1224.229   1.2524   0.5161   0.2618   1
1224.289   0.2621   0.3830   0.2680   1
1224.349   0.7189   0.4505   0.2742   1
1224.409   0.2231   0.3846   0.2804   1
1224.469   0.0770   0.3668   0.2866   1
1224.529   0.1367   0.3624   0.2927   1
1224.588   0.6790   0.4550   0.2987   1
1224.648   0.2520   0.3546   0.3048   1
1224.708   0.1317   0.3410   0.3109   1
1224.768   0.4676   0.4602   0.3169   1
1224.828   0.6561   0.4526   0.3229   1
1224.887   0.2230   0.3777   0.3287   1
1224.947   0.3874   0.3808   0.3346   1
1225.007   0.5909   0.4247   0.3405   1
1225.067   0.8743   0.5262   0.3463   1
1225.127   0.3282   0.4028   0.3521   1
1225.187   0.5230   0.4266   0.3578   1
1225.246   0.1891   0.3436   0.3634   1
1225.306   0.5995   0.4596   0.3691   1
1225.366   0.4013   0.4374   0.3747   1
1225.426   0.3065   0.4010   0.3803   1
1225.486   0.4049   0.4403   0.3858   1
1225.546   0.3871   0.3561   0.3913   1
1225.605   0.0217   0.3535   0.3966   1
1225.665   0.2633   0.4187   0.4020   1
1225.725   0.3324   0.4133   0.4074   1
1225.785   0.3592   0.4074   0.4126   1
1225.845   0.5252   0.3809   0.4179   1
1225.904   0.3668   0.4112   0.4230   1
1225.964   1.4401   0.5831   0.4282   1
1226.024   0.5759   0.4464   0.4333   1
1226.084   1.0426   0.5109   0.4383   1
1226.144   0.5694   0.4049   0.4433   1
1226.203   0.8780   0.4945   0.4482   1
1226.263   0.6613   0.5105   0.4531   1
1226.323   0.0657   0.3212   0.4580   1
1226.383   0.7432   0.4601   0.4628   1
1226.443   0.6506   0.4102   0.4676   1
1226.503   0.1957   0.3637   0.4723   1
1226.562   0.8217   0.5075   0.4769   1
1226.622   0.3855   0.4280   0.4815   1
1226.682   1.1064   0.5348   0.4861   1
1226.742   0.6200   0.3979   0.4907   1
1226.802   0.8986   0.4979   0.4951   1
1226.862   0.5634   0.4825   0.4996   1
1226.921   0.7329   0.4509   0.5039   1
1226.981   0.1323   0.3633   0.5083   1
1227.041   0.5512   0.4041   0.5126   1
1227.101   0.3089   0.3959   0.5168   1
1227.161   0.9716   0.5787   0.5211   1
1227.220   0.6548   0.4354   0.5252   0
1227.280   0.8889   0.5139   0.5293   0
1227.340   0.4578   0.3897   0.5334   0
1227.400   0.2379   0.3755   0.5374   0
1227.460   0.3044   0.4085   0.5414   0
1227.520   0.3755   0.4016   0.5454   0
1227.579   0.6793   0.4602   0.5493   0
1227.639   0.4078   0.3946   0.5531   0
1227.699   0.3265   0.3900   0.5570   0
1227.759   1.1392   0.5547   0.5608   0
1227.819   0.5234   0.4222   0.5645   0
1227.879   0.3431   0.3777   0.5682   0
1227.938   0.2894   0.3565   0.5718   0
1227.998   0.0908   0.3301   0.5755   0
1228.058   1.0640   0.5627   0.5791   0
1228.118   0.4684   0.4164   0.5826   0
1228.178   1.2821   0.5341   0.5861   0
1228.237   0.4678   0.3912   0.5896   0
1228.297   0.8345   0.4729   0.5930   0
1228.357   0.6259   0.5473   0.5964   0
1228.417   0.2797   0.3800   0.5998   0
1228.477   0.5605   0.4355   0.6031   0
1228.536   0.3616   0.3776   0.6064   0
1228.596   0.3952   0.3858   0.6096   0
1228.656   0.4080   0.4459   0.6129   0
1228.716   0.9797   0.5021   0.6160   0
1228.776   0.6961   0.4575   0.6192   0
1228.836   0.5700   0.3972   0.6223   0
1228.895   0.5931   0.4258   0.6254   0
1228.955   0.1891   0.4049   0.6284   0
1229.015   0.3750   0.4095   0.6314   0
1229.075   0.1563   0.3550   0.6344   0
1229.135   0.5101   0.3860   0.6374   0
1229.195   0.0695   0.3062   0.6403   0
1229.254   0.3780   0.4189   0.6432   0
1229.314   0.3558   0.4025   0.6460   0
1229.374   0.3352   0.3641   0.6489   0
1229.434   0.5806   0.4029   0.6517   0
1229.494   0.1757   0.3378   0.6545   0
1229.553   0.3800   0.4978   0.6572   0
1229.613   0.9577   0.5143   0.6599   0
1229.673   0.4189   0.4054   0.6626   0
1229.733   0.5367   0.3952   0.6652   0
1229.793   0.3976   0.3812   0.6678   0
1229.853   0.4453   0.4555   0.6704   0
1229.912   0.2183   0.4508   0.6730   0
1229.972   0.7513   0.5813   0.6755   0
1230.032   0.3270   0.4089   0.6780   0
1230.092   0.2888   0.4453   0.6805   0
1230.152   1.0223   0.5837   0.6830   0
1230.211   0.5522   0.4935   0.6854   0
1230.271   0.2365   0.4131   0.6878   0
1230.331   0.2138   0.3973   0.6902   0
1230.391   1.1038   0.5617   0.6926   0
1230.451   0.5053   0.5408   0.6949   0
1230.511   0.3545   0.4640   0.6972   0
1230.570   0.9669   0.5734   0.6995   0
1230.630   0.3147   0.3388   0.7018   0
1230.690   0.3912   0.3840   0.7040   0
1230.750   0.3733   0.4119   0.7062   0
1230.810   0.4522   0.3784   0.7084   0
1230.870   0.2942   0.3726   0.7106   0
1230.929   0.5438   0.3815   0.7127   0
1230.989   0.5112   0.4188   0.7149   0
1231.049   0.3268   0.3845   0.7170   0
1231.109   0.2288   0.3589   0.7191   0
1231.169   0.1925   0.3442   0.7211   0
1231.228   0.0498   0.2990   0.7231   0
1231.288   0.8706   0.4688   0.7252   0
1231.348   0.1793   0.3613   0.7272   0
1231.408   0.3155   0.3664   0.7292   0
1231.468   0.8085   0.4722   0.7311   0
1231.527   0.4179   0.3642   0.7330   0
1231.587   0.5431   0.4230   0.7350   0
1231.647   0.8660   0.4933   0.7369   0
1231.707   0.6161   0.4297   0.7388   0
1231.767   0.1201   0.3284   0.7406   0
1231.827   0.3274   0.3501   0.7425   0
1231.886   0.1582   0.3511   0.7443   0
1231.946   0.5116   0.4642   0.7461   0
1232.006   0.0209   0.2837   0.7479   0
1232.066   0.2681   0.3749   0.7497   0
1232.126   0.2681   0.3396   0.7514   0
1232.186   0.3640   0.3554   0.7532   0
1232.245   0.3040   0.3743   0.7549   0
1232.305   0.1477   0.3216   0.7566   0
1232.365   0.3827   0.3869   0.7583   0
1232.425   0.3285   0.3698   0.7599   0
1232.485   0.6549   0.4005   0.7616   0
1232.544   0.2421   0.3791   0.7632   0
1232.604   0.3064   0.3678   0.7648   0
1232.664   0.3540   0.3815   0.7665   0
1232.724   0.3115   0.3419   0.7681   0
1232.784   0.4975   0.4074   0.7696   0
1232.844   0.4144   0.4309   0.7712   0
1232.903   0.1899   0.3381   0.7727   0
1232.963   0.4088   0.3874   0.7743   0
1233.023   0.5702   0.3938   0.7758   0
1233.083   0.1731   0.3409   0.7773   0
1233.143   0.3337   0.4313   0.7788   0
1233.203   0.3973   0.3677   0.7803   0
1233.262   0.7672   0.4499   0.7817   0
1233.322   0.5592   0.4040   0.7831   0
1233.382   0.4664   0.3907   0.7846   0
1233.442   0.6436   0.4829   0.7860   0
1233.502   0.4789   0.3837   0.7874   0
1233.561   0.0361   0.2955   0.7888   0
1233.621   0.3364   0.3392   0.7902   0
1233.681   0.4473   0.3950   0.7915   0
1233.741   0.3042   0.3759   0.7929   0
1233.801   0.1879   0.3330   0.7942   0
1233.860   0.4755   0.4135   0.7955   0
1233.920   0.8906   0.4160   0.7969   0
1233.980   0.2902   0.3768   0.7982   0
1234.040   0.6283   0.4749   0.7995   0
1234.100   0.2608   0.3587   0.8008   0
1234.160   0.6069   0.4360   0.8020   0
1234.219   0.4343   0.3525   0.8033   0
1234.279   0.6718   0.4487   0.8045   0
1234.339   0.7097   0.5146   0.8058   0
1234.399   0.4966   0.4152   0.8070   0
1234.459   0.5489   0.4114   0.8082   0
1234.519   0.3428   0.3370   0.8094   0
1234.578   0.5404   0.4154   0.8106   0
1234.638   0.2561   0.3819   0.8118   0
1234.698   0.2407   0.3624   0.8129   0
1234.758   0.2636   0.3515   0.8141   0
1234.818   0.4751   0.3483   0.8153   0
1234.877   0.3193   0.3714   0.8164   0
1234.937   0.1516   0.3687   0.8175   0
1234.997   0.7374   0.4224   0.8186   0
1235.057   0.4569   0.3970   0.8197   0
1235.117   0.1163   0.2890   0.8208   0
1235.177   0.6745   0.4352   0.8219   0
1235.236   0.4979   0.4205   0.8230   0
1235.296   0.3721   0.3682   0.8241   0
1235.356   0.3211   0.3429   0.8251   0
1235.416   0.5899   0.3675   0.8262   0
1235.476   0.4231   0.4033   0.8272   0
1235.535   0.1732   0.3635   0.8283   0
1235.595   0.5741   0.4093   0.8293   0
1235.655   0.3689   0.3910   0.8303   0
1235.715   0.6728   0.4038   0.8313   0
1235.775   0.6356   0.4368   0.8323   0
1235.835   0.5269   0.4687   0.8333   0
1235.894   0.2948   0.3446   0.8343   0
1235.954   0.1793   0.4278   0.8353   0
1236.014   0.4646   0.4533   0.8362   0
1236.074   0.5533   0.4802   0.8372   0
1236.134   0.9845   0.6506   0.8381   0
1236.193   0.6259   0.8200   0.8391   0
1236.253   0.7824   0.6970   0.8400   0
1236.313   0.5915   0.5625   0.8409   0
1236.373   0.1411   0.5071   0.8418   0
1236.433   0.1419   0.4013   0.8428   0
1236.493   0.2795   0.4132   0.8437   0
1236.552   0.6394   0.4557   0.8445   0
1236.612   0.1970   0.3149   0.8454   0
1236.672   0.4000   0.3926   0.8463   0
1236.732   0.1391   0.3359   0.8472   0
1236.792   0.6048   0.3853   0.8481   0
1236.851   0.3693   0.3619   0.8489   0
1236.911   0.4908   0.3641   0.8498   0
1236.971   0.3054   0.3436   0.8506   0
1237.031   0.4396   0.4155   0.8514   0
1237.091   0.2896   0.3673   0.8523   0
1237.151   0.4909   0.4183   0.8531   0
1237.210   0.2100   0.3108   0.8539   0
1237.270   0.3665   0.3700   0.8547   0
1237.330   0.0353   0.2996   0.8555   0
1237.390   0.8616   0.4695   0.8563   0
1237.450   0.5018   0.3921   0.8571   0
1237.510   0.2328   0.3097   0.8579   0
1237.569   0.5856   0.4203   0.8587   0
1237.629   0.0276   0.2974   0.8595   0
1237.689   0.6232   0.4209   0.8602   0
1237.749   0.1068   0.3416   0.8610   0
1237.809   0.2551   0.3711   0.8617   0
1237.868   0.5147   0.4525   0.8625   0
1237.928   0.2279   0.4333   0.8632   0
1237.988   0.5301   0.4468   0.8640   0
1238.048   0.4304   0.3678   0.8647   0
1238.108   0.1822   0.2919   0.8654   0
1238.167   0.3951   0.3839   0.8661   0
1238.227   0.2834   0.3664   0.8668   0
1238.287   0.1477   0.3158   0.8676   0
1238.347   0.2548   0.3170   0.8683   0
1238.407   0.2712   0.3213   0.8690   0
1238.467   0.2754   0.3456   0.8697   0
1238.526   0.4368   0.4124   0.8703   0
1238.586   0.1431   0.3116   0.8710   0
1238.646   0.4593   0.4122   0.8717   0
1238.706   0.1833   0.3748   0.8724   0
1238.766   0.2468   0.3861   0.8730   0
1238.826   0.5275   0.4315   0.8737   0
1238.885   0.0409   0.3095   0.8743   0
1238.945   0.3852   0.3630   0.8750   0
1239.005   0.2215   0.3197   0.8756   0
1239.065   0.6660   0.4035   0.8763   0
1239.125   0.6488   0.5209   0.8769   0
1239.184   0.2776   0.3565   0.8775   0
1239.244   0.6822   0.4553   0.8782   0
1239.304   0.5667   0.4030   0.8788   0
1239.364   0.2224   0.3868   0.8794   0
1239.424   0.4463   0.4835   0.8800   0
1239.484   0.4412   0.4638   0.8806   0
1239.543   0.1095   0.3718   0.8812   0
1239.603   0.6561   0.4722   0.8818   0
1239.663   0.6171   0.4522   0.8824   0
1239.723   0.4824   0.4898   0.8830   0
1239.783   0.1547   0.3851   0.8836   0
1239.843   0.4233   0.4150   0.8842   0
1239.902   0.2192   0.3081   0.8848   0
1239.962   0.2491   0.3434   0.8853   0
1240.022   0.0685   0.3197   0.8859   0
1240.082   0.2163   0.3220   0.8865   0
1240.142   0.6016   0.4113   0.8870   0
1240.201   0.2877   0.3145   0.8876   0
1240.261   0.3507   0.3543   0.8881   0
1240.321   0.1482   0.3541   0.8887   0
1240.381   0.0915   0.2889   0.8892   0
1240.441   0.5737   0.4088   0.8898   0
1240.500   0.4622   0.3613   0.8903   0
1240.560   0.3714   0.3744   0.8909   0
1240.620   0.4441   0.4168   0.8914   0
1240.680   0.2042   0.3196   0.8919   0
1240.740   0.0876   0.3104   0.8924   0
1240.800   0.2534   0.3155   0.8930   0
1240.859   0.0744   0.2809   0.8935   0
1240.919   0.1529   0.3689   0.8940   0
1240.979   0.0130   0.2702   0.8945   0
1241.039   0.2721   0.3340   0.8950   0
1241.099   0.2849   0.3320   0.8955   0
1241.159   0.4242   0.3759   0.8960   0
1241.218   0.3385   0.3848   0.8965   0
1241.278   0.4217   0.3624   0.8970   0
1241.338   0.6291   0.4291   0.8975   0
1241.398   0.3977   0.3965   0.8979   0
1241.458   0.8445   0.5584   0.8984   0
1241.517   0.1759   0.4172   0.8989   0
1241.577   0.9422   0.4912   0.8994   0
1241.637   0.5579   0.3880   0.8998   0
1241.697   0.1277   0.2709   0.9003   0
1241.757   0.6446   0.4116   0.9008   0
1241.817   0.4714   0.4249   0.9012   0
1241.876   0.7514   0.4407   0.9017   0
1241.936   0.6614   0.4135   0.9021   0
1241.996   0.6022   0.3903   0.9026   0
1242.056   0.8893   0.4797   0.9030   0
1242.116   0.7751   0.4472   0.9035   1
1242.175   0.6834   0.4241   0.9039   1
1242.235   0.8320   0.4392   0.9044   1
1242.295   0.5533   0.3854   0.9048   1
1242.355   0.5513   0.4131   0.9052   1
1242.415   0.5142   0.4059   0.9057   1
1242.475   0.1367   0.3018   0.9061   1
1242.534   1.2959   0.4808   0.9065   1
1242.594   0.4235   0.3307   0.9069   1
1242.654   0.2979   0.3475   0.9074   1
1242.714   0.8221   0.4991   0.9078   1
1242.774   0.2206   0.3224   0.9082   1
1242.833   0.5630   0.3890   0.9086   1
1242.893   0.5185   0.3462   0.9090   1
1242.953   0.0877   0.2863   0.9094   1
1243.013   0.4290   0.4008   0.9098   1
1243.073   0.6483   0.4058   0.9102   1
1243.133   0.7241   0.4310   0.9106   1
1243.192   0.2060   0.3461   0.9110   1
1243.252   0.9021   0.5307   0.9114   1
1243.312   0.3018   0.4679   0.9118   1
1243.372   0.7403   0.4785   0.9122   1
1243.432   0.9742   0.4787   0.9126   1
1243.491   1.0072   0.4871   0.9129   1
1243.551   0.6142   0.4152   0.9133   1
1243.611   0.6099   0.4706   0.9137   1
1243.671   0.8968   0.5086   0.9141   1
1243.731   0.3730   0.4026   0.9144   1
1243.791   0.6422   0.4624   0.9148   1
1243.850   0.8988   0.4700   0.9152   1
1243.910   0.7603   0.5062   0.9155   1
1243.970   0.5701   0.4220   0.9159   1
1244.030   0.9492   0.4641   0.9163   1
1244.090   0.7511   0.4026   0.9166   1
1244.150   0.4802   0.3928   0.9170   1
1244.209   0.7082   0.4480   0.9173   1
1244.269   1.0254   0.4607   0.9177   1
1244.329   0.8719   0.4595   0.9180   1
1244.389   0.9583   0.4132   0.9184   1
1244.449   1.2957   0.5023   0.9187   1
1244.508   0.6065   0.4868   0.9191   1
1244.568   0.2595   0.3358   0.9194   1
1244.628   0.9906   0.4700   0.9197   1
1244.688   0.7626   0.4017   0.9201   1
1244.748   0.5592   0.3886   0.9204   1
1244.807   0.6017   0.4454   0.9207   1
1244.867   0.5927   0.3880   0.9211   1
1244.927   0.3970   0.3615   0.9214   1
1244.987   0.3235   0.3250   0.9217   1
1245.047   0.5950   0.4146   0.9221   1
1245.107   0.6728   0.4437   0.9224   1
1245.167   0.8518   0.4246   0.9227   1
1245.226   1.2554   0.4910   0.9230   1
1245.286   0.9412   0.4379   0.9233   1
1245.346   1.1431   0.5119   0.9237   1
1245.406   1.2179   0.5266   0.9240   1
1245.466   0.8605   0.4242   0.9243   1
1245.525   0.6102   0.4022   0.9246   1
1245.585   0.8694   0.4283   0.9249   1
1245.645   0.8012   0.4272   0.9252   1
1245.705   0.8466   0.5059   0.9255   1
1245.765   1.1824   0.4808   0.9258   1
1245.824   0.4108   0.3744   0.9261   1
1245.884   0.7462   0.4024   0.9264   1
1245.944   0.4730   0.3992   0.9267   1
1246.004   0.3105   0.3895   0.9270   1
1246.064   0.8162   0.4284   0.9273   1
1246.124   1.1794   0.4986   0.9276   1
1246.183   1.1146   0.4650   0.9279   1
1246.243   0.8536   0.4550   0.9281   1
1246.303   0.9021   0.5508   0.9284   1
1246.363   1.0080   0.4651   0.9287   1
1246.423   0.8407   0.4425   0.9290   1
1246.483   0.7676   0.4242   0.9293   1
1246.542   0.6521   0.4013   0.9296   1
1246.602   1.2112   0.5591   0.9298   1
1246.662   0.4848   0.4218   0.9301   1
1246.722   0.8302   0.4229   0.9304   1
1246.782   1.0011   0.4429   0.9307   1
1246.841   1.1508   0.4756   0.9309   1
1246.901   0.4272   0.4287   0.9312   1
1246.961   0.6405   0.4060   0.9315   1
1247.021   0.4346   0.3883   0.9317   1
1247.081   0.8737   0.4079   0.9320   1
1247.141   0.6885   0.3863   0.9323   1
1247.200   1.3919   0.5794   0.9325   1
1247.260   0.6923   0.4344   0.9328   1
1247.320   1.0610   0.5295   0.9330   1
1247.380   0.9016   0.4465   0.9333   1
1247.440   0.6800   0.4533   0.9336   1
1247.499   0.9112   0.5046   0.9338   1
1247.559   1.0696   0.4415   0.9341   1
1247.619   0.4628   0.3771   0.9343   1
1247.679   0.7482   0.4108   0.9346   1
1247.739   0.7937   0.4235   0.9348   1
1247.799   0.6241   0.4541   0.9351   1
1247.858   1.0278   0.4735   0.9353   1
1247.918   0.5145   0.4057   0.9356   1
1247.978   1.0397   0.4519   0.9358   1
1248.038   0.7920   0.4354   0.9360   1
1248.098   0.5871   0.4350   0.9363   1
1248.157   0.5344   0.4009   0.9365   1
1248.217   0.7185   0.4290   0.9368   1
1248.277   0.7511   0.4114   0.9370   1
1248.337   0.7446   0.4328   0.9372   1
1248.397   0.7613   0.4780   0.9375   1
1248.457   0.2266   0.3497   0.9377   1
1248.516   1.4617   0.5383   0.9379   1
1248.576   0.7019   0.4592   0.9382   1
1248.636   0.3236   0.4190   0.9384   0
1248.696   0.7833   0.5659   0.9386   0
1248.756   0.2155   0.3795   0.9388   0
1248.815   0.3388   0.3502   0.9391   0
1248.875   0.3775   0.3181   0.9393   0
1248.935   0.0617   0.3395   0.9395   0
1248.995   0.2470   0.3961   0.9397   0
1249.055   0.7205   0.4579   0.9400   0
1249.115   0.0907   0.2814   0.9402   0
1249.174   0.2176   0.2944   0.9404   0
1249.234   0.3705   0.3826   0.9406   0
1249.294   0.3725   0.3969   0.9408   0
1249.354   0.2811   0.3497   0.9410   0
1249.414   0.5404   0.4008   0.9413   0
1249.474   0.2762   0.3009   0.9415   0
1249.533   0.6301   0.4420   0.9417   0
1249.593   0.5317   0.4736   0.9419   0
1249.653   0.3963   0.3970   0.9421   0
1249.713   0.2693   0.4093   0.9423   0
1249.773   0.6999   0.4379   0.9425   0
1249.832   0.6219   0.4548   0.9427   0
1249.892   0.4754   0.4798   0.9429   0
1249.952   0.5417   0.4853   0.9431   0
1250.012   0.6226   0.4734   0.9433   0
1250.072   0.3933   0.3329   0.9435   0
1250.131   0.5317   0.4031   0.9437   0
1250.191   0.8489   0.4836   0.9439   0
1250.251   0.4967   0.3793   0.9441   0
1250.311   0.4028   0.4003   0.9443   0
1250.371   0.4001   0.3244   0.9445   0
1250.431   0.2396   0.3319   0.9447   0
1250.490   0.1158   0.3287   0.9449   0
1250.550   0.2131   0.3146   0.9451   0
1250.610   0.5731   0.4085   0.9453   0
1250.670   0.4666   0.3577   0.9455   0
1250.730   1.0480   0.4602   0.9457   0
1250.790   0.9607   0.4894   0.9459   0
1250.849   0.5818   0.3955   0.9460   0
1250.909   1.8310   0.5189   0.9462   0
1250.969   0.5478   0.3504   0.9464   0
1251.029   0.8530   0.4774   0.9466   0
1251.089   0.8729   0.4764   0.9468   0
1251.148   0.2654   0.3542   0.9470   0
1251.208   0.6110   0.4267   0.9472   0
1251.268   0.5436   0.3498   0.9473   0
1251.328   0.8828   0.4328   0.9475   0
1251.388   1.0113   0.5207   0.9477   0
1251.448   0.3988   0.3604   0.9479   0
1251.507   0.7714   0.4106   0.9480   0
1251.567   0.6240   0.3910   0.9482   0
1251.627   0.4538   0.3828   0.9484   0
1251.687   0.6478   0.4408   0.9486   0
1251.747   1.3319   0.5058   0.9488   0
1251.807   0.4373   0.3863   0.9489   0
1251.866   0.6216   0.3753   0.9491   0
1251.926   0.4538   0.3772   0.9493   0
1251.986   0.6438   0.4688   0.9494   0
1252.046   0.4843   0.3950   0.9496   0
1252.106   0.4018   0.4173   0.9498   0
1252.165   0.4430   0.3558   0.9499   0
1252.225   0.3069   0.3336   0.9501   0
1252.285   0.7076   0.4996   0.9503   0
1252.345   0.5081   0.4053   0.9504   0
1252.405   0.5776   0.4175   0.9506   0
1252.464   0.4605   0.3321   0.9508   0
1252.524   0.3668   0.3726   0.9509   0
1252.584   0.1627   0.3797   0.9511   0
1252.644   0.4053   0.4261   0.9513   0
1252.704   0.0945   0.3690   0.9514   0
1252.764   0.1727   0.3435   0.9516   0
1252.823   0.2200   0.3784   0.9517   0
1252.883   0.3076   0.3541   0.9519   0
1252.943   1.1720   0.4493   0.9521   0
1253.003   0.3905   0.3895   0.9522   0
1253.063   0.7949   0.3925   0.9524   0
1253.123   0.9114   0.4489   0.9525   0
1253.182   0.8495   0.4522   0.9527   0
1253.242   0.6971   0.4253   0.9528   0
1253.302   0.2782   0.3390   0.9530   0
1253.362   0.5630   0.3646   0.9531   0
1253.422   0.2970   0.3496   0.9533   0
1253.481   0.3047   0.3824   0.9534   0
1253.541   0.4178   0.3800   0.9536   0
1253.601   0.5288   0.3870   0.9537   0
1253.661   0.2516   0.3087   0.9539   0
1253.721   0.3506   0.3437   0.9540   0
1253.781   0.5036   0.4243   0.9542   0
1253.840   0.7308   0.4508   0.9543   0
1253.900   0.6497   0.4296   0.9545   0
1253.960   0.4820   0.3665   0.9546   0
1254.020   0.6032   0.3852   0.9548   0
1254.080   0.8701   0.5136   0.9549   0
1254.140   0.4006   0.3767   0.9551   0
1254.199   0.9227   0.4444   0.9552   0
1254.259   0.5101   0.3554   0.9553   0
1254.319   0.6385   0.3982   0.9555   0
1254.379   0.3408   0.3830   0.9556   0
1254.439   0.3933   0.3674   0.9558   0
1254.498   0.7140   0.4427   0.9559   0
1254.558   0.3972   0.3544   0.9560   0
1254.618   1.1971   0.4665   0.9562   0
1254.678   0.8540   0.4788   0.9563   0
1254.738   0.6329   0.4030   0.9564   0
1254.797   0.5934   0.4127   0.9566   0
1254.857   1.0453   0.4417   0.9567   0
1254.917   0.8491   0.4324   0.9569   0
1254.977   0.2655   0.3640   0.9570   0
1255.037   0.5394   0.3958   0.9571   0
1255.097   0.4535   0.3761   0.9573   0
1255.156   1.0374   0.4420   0.9574   0
1255.216   0.9587   0.5461   0.9575   0
1255.276   0.6499   0.5450   0.9576   0
1255.336   0.6876   0.4446   0.9578   0
1255.396   0.5270   0.4453   0.9579   0
1255.456   0.6704   0.4050   0.9580   0
1255.515   0.2072   0.3205   0.9582   0
1255.575   0.6689   0.4522   0.9583   0
1255.635   0.1755   0.3082   0.9584   0
1255.695   0.5463   0.4218   0.9585   0
1255.755   0.3112   0.3152   0.9587   0
1255.814   0.2874   0.3556   0.9588   0
1255.874   0.1297   0.3180   0.9589   0
1255.934   0.1016   0.2842   0.9591   0
1255.994   0.2377   0.3181   0.9592   0
1256.054   0.2354   0.2985   0.9593   0
1256.114   0.1912   0.3304   0.9594   0
1256.173   0.4579   0.4278   0.9595   0
1256.233   0.5073   0.3982   0.9597   0
1256.293   0.5654   0.3928   0.9598   0
1256.353   0.4196   0.3356   0.9599   0
1256.413   0.6973   0.4299   0.9600   0
1256.472   0.5585   0.4535   0.9601   0
1256.532   0.2890   0.3580   0.9603   0
1256.592   0.3077   0.3590   0.9604   0
1256.652   0.7288   0.4013   0.9605   0
1256.712   0.7101   0.4097   0.9606   0
1256.772   0.9450   0.5204   0.9607   0
1256.831   1.1174   0.4742   0.9609   0
1256.891   0.4507   0.3795   0.9610   0
1256.951   0.4358   0.3640   0.9611   0
1257.011   0.0755   0.3043   0.9612   0
1257.071   0.3694   0.3964   0.9613   0
1257.130   0.6096   0.3937   0.9614   0
1257.190   1.0137   0.4683   0.9615   0
1257.250   0.7684   0.3961   0.9617   0
1257.310   0.6523   0.4313   0.9618   0
1257.370   1.1874   0.5387   0.9619   0
1257.430   0.5902   0.4056   0.9620   0
1257.489   0.5018   0.3780   0.9621   0
1257.549   0.5556   0.3896   0.9622   0
1257.609   0.8835   0.4695   0.9623   0
1257.669   0.3169   0.3884   0.9624   0
1257.729   0.7232   0.4471   0.9625   0
1257.788   0.5291   0.3936   0.9626   0
1257.848   0.7211   0.4071   0.9628   0
1257.908   1.4643   0.5197   0.9629   0
1257.968   0.7673   0.4731   0.9630   0
1258.028   0.8112   0.4066   0.9631   0
1258.088   0.6238   0.4086   0.9632   0
1258.147   0.5413   0.3526   0.9633   0
1258.207   0.4980   0.3948   0.9634   0
1258.267   0.5676   0.4330   0.9635   0
1258.327   0.5739   0.4101   0.9636   0
1258.387   0.9213   0.4620   0.9637   0
1258.447   0.6832   0.3811   0.9638   0
1258.506   0.5070   0.3835   0.9639   0
1258.566   0.2549   0.3653   0.9640   0
1258.626   0.6317   0.4415   0.9641   0
1258.686   0.6993   0.4351   0.9642   0
1258.746   0.7081   0.4046   0.9643   0
1258.805   0.7953   0.4294   0.9644   0
1258.865   0.8262   0.4745   0.9645   0
1258.925   0.5561   0.4061   0.9646   0
1258.985   0.8068   0.4355   0.9647   0
1259.045   0.6591   0.3877   0.9648   0
1259.104   0.3111   0.3819   0.9649   0
1259.164   0.2180   0.4222   0.9650   0
1259.224   0.9477   0.4937   0.9651   0
1259.284   0.7841   0.5362   0.9652   0
1259.344   0.1765   0.3481   0.9653   0
1259.404   0.3644   0.3632   0.9654   0
1259.464   0.4385   0.3994   0.9655   0
1259.523   0.4775   0.3823   0.9656   0
1259.583   0.4595   0.4190   0.9657   0
1259.643   0.5587   0.3663   0.9658   0
1259.703   0.5627   0.3833   0.9659   0
1259.763   0.3804   0.4016   0.9660   0
1259.822   0.4135   0.3498   0.9661   0
1259.882   0.2034   0.3227   0.9662   0
1259.942   0.0945   0.2604   0.9663   0
1260.002   0.3563   0.3618   0.9664   0
1260.062   0.1093   0.3239   0.9665   0
1260.121   0.1390   0.3148   0.9665   0
1260.181   0.0822   0.2883   0.9666   0
1260.241   -0.0329   0.2300   0.9667   0
1260.301   0.0834   0.2869   0.9668   0
1260.361   -0.0342   0.2723   0.9669   0
1260.421   -0.0337   0.2480   0.9670   0
1260.480   -0.0328   0.2483   0.9671   0
1260.540   -0.0346   0.2303   0.9672   0
1260.600   -0.0366   0.2475   0.9673   0
1260.660   0.0608   0.3041   0.9674   0
1260.720   0.1932   0.3129   0.9674   0
1260.780   0.0099   0.2695   0.9675   0
1260.839   0.0316   0.2491   0.9676   0
1260.899   0.1019   0.2863   0.9677   0
1260.959   0.0503   0.2933   0.9678   0
1261.019   -0.0346   0.2470   0.9679   0
1261.079   -0.0295   0.2470   0.9680   0
1261.138   0.0804   0.3082   0.9681   0
1261.198   0.0409   0.3587   0.9681   0
1261.258   0.5638   0.5229   0.9682   0
1261.318   0.3056   0.3648   0.9683   0
1261.378   0.4007   0.3644   0.9684   0
1261.438   -0.0262   0.2233   0.9685   0
1261.497   0.1097   0.3208   0.9686   0
1261.557   0.2570   0.4512   0.9686   0
1261.617   0.0529   0.3454   0.9687   0
1261.677   0.0555   0.3347   0.9688   0
1261.737   0.1467   0.2691   0.9689   0
1261.796   0.0987   0.2776   0.9690   0
1261.856   0.0493   0.2897   0.9691   0
1261.916   0.2925   0.3136   0.9691   0
1261.976   0.0295   0.2656   0.9692   0
1262.036   0.1846   0.2885   0.9693   0
1262.096   0.0479   0.2883   0.9694   0
1262.155   0.0711   0.3721   0.9695   0
1262.215   -0.0391   0.3252   0.9695   0
1262.275   -0.0384   0.3130   0.9696   0
1262.335   -0.0292   0.2266   0.9697   0
1262.395   0.0328   0.2622   0.9698   0
1262.454   0.0383   0.3002   0.9699   0
1262.514   0.0326   0.2620   0.9699   0
1262.574   -0.0269   0.2454   0.9700   0
1262.634   -0.0271   0.2277   0.9701   0
1262.694   0.0312   0.2627   0.9702   0
1262.754   -0.0337   0.2673   0.9703   0
1262.813   0.0195   0.2688   0.9703   0
1262.873   0.2436   0.3330   0.9704   0
1262.933   0.1890   0.2929   0.9705   0
1262.993   0.4145   0.3561   0.9706   0
1263.053   0.4889   0.4164   0.9706   0
1263.112   0.3847   0.3617   0.9707   0
1263.172   0.1458   0.2984   0.9708   0
1263.232   0.5078   0.3291   0.9709   0
1263.292   0.2717   0.3252   0.9709   0
1263.352   0.4643   0.4361   0.9710   0
1263.412   0.4210   0.3803   0.9711   0
1263.471   0.6134   0.3771   0.9712   0
1263.531   0.6490   0.3958   0.9712   0
1263.591   0.4175   0.3776   0.9713   0
1263.651   0.8368   0.4823   0.9714   0
1263.711   0.4945   0.3737   0.9715   0
1263.771   0.2978   0.3720   0.9715   0
1263.830   0.5430   0.3675   0.9716   0
1263.890   0.3563   0.3339   0.9717   0
1263.950   0.5713   0.4326   0.9717   0
1264.010   0.4954   0.4228   0.9718   0
1264.070   0.6867   0.4388   0.9719   0
1264.129   0.6664   0.3617   0.9720   0
1264.189   0.2446   0.3268   0.9720   0
1264.249   0.5637   0.4206   0.9721   0
1264.309   1.1834   0.4673   0.9722   0
1264.369   0.5612   0.3835   0.9722   0
1264.428   0.6617   0.4274   0.9723   0
1264.488   0.5994   0.4085   0.9724   0
1264.548   0.7149   0.4459   0.9724   1
1264.608   0.8151   0.4339   0.9725   1
1264.668   0.3832   0.3641   0.9726   1
1264.728   0.3191   0.3424   0.9726   1
1264.787   0.2731   0.3446   0.9727   1
1264.847   0.8822   0.4965   0.9728   1
1264.907   0.6753   0.4193   0.9728   1
1264.967   1.1079   0.4777   0.9729   1
1265.027   0.3614   0.3213   0.9730   1
1265.087   0.5352   0.3929   0.9730   1
1265.146   0.5460   0.4068   0.9731   1
1265.206   0.6501   0.4152   0.9732   1
1265.266   0.6884   0.4326   0.9732   1
1265.326   0.7806   0.3782   0.9733   1
1265.386   0.4393   0.3873   0.9734   1
1265.445   0.5287   0.4255   0.9734   1
1265.505   0.6886   0.4060   0.9735   1
1265.565   0.5415   0.3728   0.9736   1
1265.625   1.2696   0.5674   0.9736   1
1265.685   1.0903   0.4577   0.9737   1
1265.745   0.3521   0.4135   0.9738   1
1265.804   1.2300   0.4827   0.9738   1
1265.864   1.0665   0.4788   0.9739   1
1265.924   0.4742   0.3788   0.9740   1
1265.984   0.3102   0.3432   0.9740   1
1266.044   0.9428   0.5097   0.9741   1
1266.104   1.4083   0.4779   0.9741   1
1266.163   0.9049   0.4419   0.9742   1
1266.223   0.6915   0.3923   0.9743   1
1266.283   0.6954   0.4270   0.9743   1
1266.343   0.3397   0.4188   0.9744   1
1266.403   0.4992   0.3896   0.9745   1
1266.462   0.7459   0.4169   0.9745   1
1266.522   1.2085   0.4272   0.9746   1
1266.582   0.3266   0.3329   0.9746   1
1266.642   0.4322   0.4318   0.9747   1
1266.702   0.3588   0.3566   0.9748   1
1266.761   0.2044   0.3203   0.9748   1
1266.821   0.3500   0.3187   0.9749   1
1266.881   0.3232   0.3370   0.9749   1
1266.941   0.5186   0.4544   0.9750   1
1267.001   0.4719   0.3690   0.9751   1
1267.061   0.4862   0.3698   0.9751   1
1267.120   0.5088   0.3346   0.9752   1
1267.180   0.3614   0.3403   0.9752   1
1267.240   0.5834   0.4674   0.9753   1
1267.300   0.8695   0.4108   0.9754   1
1267.360   0.5680   0.3876   0.9754   1
1267.420   0.7458   0.3892   0.9755   1
1267.479   1.1546   0.4830   0.9755   1
1267.539   0.4643   0.4018   0.9756   1
1267.599   0.5740   0.3939   0.9756   1
1267.659   1.2421   0.4585   0.9757   1
1267.719   0.3746   0.3282   0.9758   1
1267.778   0.4958   0.3936   0.9758   1
1267.838   0.5992   0.4498   0.9759   1
1267.898   0.4766   0.3549   0.9759   1
1267.958   0.5899   0.3946   0.9760   1
1268.018   0.6401   0.3984   0.9760   1
1268.078   1.2415   0.4696   0.9761   1
1268.137   0.4754   0.4311   0.9761   1
1268.197   0.4540   0.3812   0.9762   1
1268.257   0.5199   0.3773   0.9763   1
1268.317   0.4907   0.3422   0.9763   1
1268.377   0.6075   0.3714   0.9764   1
1268.436   0.5125   0.4083   0.9764   1
1268.496   0.4789   0.3892   0.9765   1
1268.556   0.8852   0.4222   0.9765   1
1268.616   0.7634   0.3734   0.9766   1
1268.676   0.3058   0.3084   0.9766   1
1268.736   0.2668   0.3608   0.9767   1
1268.795   0.7582   0.4184   0.9767   1
1268.855   1.3119   0.4864   0.9768   1
1268.915   0.7091   0.3931   0.9769   1
1268.975   0.5565   0.3896   0.9769   1
1269.035   0.9959   0.5030   0.9770   1
1269.094   0.6637   0.4298   0.9770   1
1269.154   0.4932   0.3595   0.9771   1
1269.214   0.7218   0.4009   0.9771   1
1269.274   0.4827   0.3813   0.9772   1
1269.334   0.2182   0.3497   0.9772   1
1269.394   0.6262   0.4124   0.9773   1
1269.453   0.8290   0.4197   0.9773   1
1269.513   0.6321   0.3807   0.9774   1
1269.573   1.1074   0.4620   0.9774   1
1269.633   1.2815   0.5291   0.9775   1
1269.693   1.2530   0.4688   0.9775   1
1269.752   0.7913   0.4420   0.9776   1
1269.812   0.8354   0.3873   0.9776   1
1269.872   0.7637   0.4091   0.9777   1
1269.932   0.3586   0.3917   0.9777   1
1269.992   0.4120   0.3384   0.9778   1
1270.052   0.4768   0.3852   0.9778   1
1270.111   0.8915   0.3999   0.9779   1
1270.171   0.5767   0.3764   0.9779   1
1270.231   0.9054   0.5162   0.9780   1
1270.291   0.8638   0.5052   0.9780   1
1270.351   0.8657   0.5012   0.9781   1
1270.411   0.6121   0.4519   0.9781   1
1270.470   1.5355   0.5795   0.9782   1
1270.530   0.8927   0.5512   0.9782   1
1270.590   0.1784   0.3798   0.9783   1
1270.650   0.2870   0.4022   0.9783   1
1270.710   0.5050   0.4235   0.9784   1
1270.769   0.8888   0.5326   0.9784   1
1270.829   0.5457   0.4798   0.9785   1
1270.889   0.3499   0.4278   0.9785   1
1270.949   0.5340   0.4731   0.9786   1
1271.009   0.1485   0.3440   0.9786   1
1271.068   0.2724   0.4014   0.9787   1
1271.128   1.2213   0.5837   0.9787   1
1271.188   0.2661   0.3950   0.9787   1
1271.248   0.4132   0.4387   0.9788   1
1271.308   0.5157   0.4016   0.9788   1
1271.368   0.6948   0.4678   0.9789   1
1271.427   0.9126   0.5764   0.9789   1
1271.487   0.5653   0.4597   0.9790   1
1271.547   0.3227   0.4074   0.9790   1
1271.607   0.4202   0.4079   0.9791   1
1271.667   0.7739   0.5053   0.9791   1
1271.727   0.7147   0.5522   0.9792   1
1271.786   0.1739   0.3611   0.9792   1
1271.846   0.2017   0.3816   0.9793   1
1271.906   0.8535   0.4833   0.9793   1
1271.966   0.7637   0.4815   0.9793   1
1272.026   0.6601   0.5725   0.9794   1
1272.085   0.4549   0.4456   0.9794   1
1272.145   0.6438   0.4864   0.9795   1
1272.205   0.5931   0.4303   0.9795   1
1272.265   0.3817   0.4218   0.9796   1
1272.325   0.3760   0.4891   0.9796   1
1272.385   0.4550   0.4298   0.9797   1
1272.444   1.0417   0.5312   0.9797   1
1272.504   0.3976   0.4101   0.9797   1
1272.564   0.4315   0.4371   0.9798   1
1272.624   0.3889   0.4545   0.9798   1
1272.684   0.4099   0.4583   0.9799   1
1272.744   0.8122   0.4889   0.9799   1
1272.803   1.1814   0.5251   0.9800   1
1272.863   1.1967   0.5961   0.9800   1
1272.923   0.2170   0.4113   0.9800   1
1272.983   0.8147   0.5359   0.9801   1
1273.043   0.8536   0.5130   0.9801   1
1273.102   0.7290   0.4741   0.9802   1
1273.162   0.6348   0.4682   0.9802   1
1273.222   0.5820   0.4893   0.9802   1
1273.282   0.5606   0.4764   0.9803   1
1273.342   0.4847   0.4392   0.9803   1
1273.401   0.6977   0.4981   0.9804   1
1273.461   0.7850   0.5153   0.9804   1
1273.521   0.9955   0.5621   0.9805   1
1273.581   0.6897   0.4776   0.9805   1
1273.641   0.4838   0.4621   0.9805   1
1273.701   0.7783   0.4695   0.9806   1
1273.760   0.2751   0.5395   0.9806   1
1273.820   0.6510   0.7031   0.9807   1
1273.880   0.4558   0.6153   0.9807   1
1273.940   0.8464   0.6958   0.9807   1
1274.000   0.8152   0.5509   0.9808   1
1274.060   0.8372   0.6344   0.9808   1
1274.119   1.3094   0.7585   0.9809   1
1274.179   0.8450   0.6245   0.9809   1
1274.239   1.0152   0.6194   0.9809   1
1274.299   0.4291   0.5822   0.9810   1
1274.359   0.3410   0.6220   0.9810   1
1274.418   1.0717   0.7812   0.9811   1
1274.478   0.6978   0.7060   0.9811   1
1274.538   0.5667   0.6388   0.9811   1
1274.598   0.5200   0.5629   0.9812   1
1274.658   0.4490   0.6053   0.9812   1
1274.718   1.0199   0.7511   0.9813   1
1274.777   0.4806   0.5613   0.9813   1
1274.837   0.3532   0.5619   0.9813   1
1274.897   0.5103   0.5368   0.9814   1
1274.957   0.3254   0.5799   0.9814   1
1275.017   0.9977   0.7361   0.9814   1
1275.076   0.6886   0.6166   0.9815   1
1275.136   0.7114   0.6405   0.9815   1
1275.196   0.5166   0.5848   0.9816   1
1275.256   0.4154   0.6000   0.9816   1
1275.316   0.9227   0.7043   0.9816   1
1275.376   1.8337   1.2172   0.9817   1
1275.435   0.7122   1.0361   0.9817   1
1275.495   0.6053   0.9421   0.9818   1
1275.555   1.0850   1.1012   0.9818   1
1275.615   0.8536   1.1655   0.9818   1
1275.675   1.0847   1.1025   0.9819   1
1275.734   2.2128   1.2762   0.9819   1
1275.794   0.9286   0.9969   0.9820   1
1275.854   0.3377   0.9716   0.9820   1
1275.914   1.3090   1.2501   0.9820   1
1275.974   1.0770   1.1049   0.9821   1
1276.034   2.1930   1.2783   0.9821   1
1276.093   0.5952   0.9468   0.9822   1
1276.153   1.8437   1.2249   0.9823   1
1276.213   1.3250   1.2533   0.9824   1
1276.273   0.3435   0.9750   0.9827   1
1276.333   1.0868   1.1081   0.9832   1
1276.392   0.2719   0.8939   0.9845   1
1276.452   1.4503   1.1694   0.9906   1
