# Best-fit normalized data and profile from VoigtFit
# column 1 : Wavelength
# column 2 : Normalized flux
# column 3 : Normalized error
# column 4 : Best-fit profile
# column 5 : Pixel mask, 1=included, 0=excluded
1134.602   1.0941   0.3630   0.9958   1
1134.662   0.6241   0.2223   0.9958   1
1134.722   0.4804   0.1771   0.9958   1
1134.782   0.7714   0.2118   0.9958   1
1134.841   0.3330   0.1783   0.9958   1
1134.901   0.3012   0.1662   0.9958   1
1134.961   0.4802   0.1909   0.9958   1
1135.021   0.1993   0.1462   0.9958   1
1135.081   0.4471   0.1905   0.9958   1
1135.141   0.5095   0.2053   0.9958   1
1135.200   0.7631   0.2192   0.9958   1
1135.260   0.7327   0.2112   0.9958   1
1135.320   0.6334   0.1904   0.9958   1
1135.380   0.3335   0.1692   0.9958   1
1135.440   0.9854   0.2477   0.9958   1
1135.500   0.8876   0.2177   0.9958   1
1135.559   0.9770   0.2328   0.9957   1
1135.619   0.7700   0.2016   0.9957   1
1135.679   0.6020   0.2002   0.9957   1
1135.739   0.7002   0.2249   0.9957   1
1135.799   0.3406   0.1573   0.9957   1
1135.858   0.6514   0.1952   0.9957   1
1135.918   0.6866   0.1790   0.9957   1
1135.978   0.3832   0.1753   0.9957   1
1136.038   0.2301   0.1660   0.9957   1
1136.098   0.3175   0.1666   0.9957   1
1136.157   0.1988   0.1405   0.9957   1
1136.217   0.0891   0.1139   0.9957   1
1136.277   0.2879   0.1555   0.9957   1
1136.337   0.0608   0.1264   0.9957   1
1136.397   0.0777   0.1123   0.9957   1
1136.457   0.2054   0.1440   0.9957   1
1136.516   0.2226   0.1447   0.9956   1
1136.576   0.1999   0.1898   0.9956   1
1136.636   0.2738   0.1725   0.9956   1
1136.696   0.2270   0.1433   0.9956   1
1136.756   0.5848   0.1832   0.9956   1
1136.816   0.1852   0.0997   0.9956   1
1136.875   0.2555   0.1170   0.9956   1
1136.935   0.3205   0.1404   0.9956   1
1136.995   0.4200   0.1336   0.9956   1
1137.055   0.2085   0.1123   0.9956   1
1137.115   0.4786   0.1364   0.9956   1
1137.174   0.7662   0.1689   0.9956   1
1137.234   0.4457   0.1580   0.9956   1
1137.294   0.5534   0.1557   0.9956   1
1137.354   0.8073   0.1748   0.9956   1
1137.414   0.7359   0.1558   0.9955   1
1137.474   0.7807   0.1673   0.9955   1
1137.533   0.8127   0.1903   0.9955   1
1137.593   1.3323   0.2174   0.9955   1
1137.653   0.8665   0.1795   0.9955   1
1137.713   0.9349   0.1798   0.9955   1
1137.773   0.8802   0.1885   0.9955   1
1137.832   1.4707   0.2280   0.9955   1
1137.892   0.8132   0.1774   0.9955   1
1137.952   1.5185   0.2109   0.9955   1
1138.012   0.9196   0.1733   0.9955   1
1138.072   0.6754   0.1792   0.9955   1
1138.132   1.0535   0.2105   0.9955   1
1138.191   0.9681   0.1842   0.9955   1
1138.251   0.5673   0.1586   0.9955   1
1138.311   0.7497   0.1494   0.9954   1
1138.371   0.8299   0.1706   0.9954   1
1138.431   0.7214   0.1833   0.9954   1
1138.490   0.6935   0.1644   0.9954   1
1138.550   0.9793   0.1891   0.9954   1
1138.610   0.6610   0.1603   0.9954   1
1138.670   0.7717   0.1707   0.9954   1
1138.730   0.8254   0.1869   0.9954   1
1138.790   0.7879   0.1672   0.9954   1
1138.849   0.9717   0.1819   0.9954   1
1138.909   0.7301   0.1490   0.9954   1
1138.969   0.4976   0.1568   0.9954   1
1139.029   0.8630   0.1866   0.9954   1
1139.089   0.9179   0.1711   0.9954   1
1139.148   0.5406   0.1373   0.9953   1
1139.208   0.6629   0.1245   0.9953   1
1139.268   0.7997   0.1476   0.9953   1
1139.328   0.7411   0.1626   0.9953   1
1139.388   0.8577   0.1594   0.9953   1
1139.448   0.9365   0.1559   0.9953   1
1139.507   0.8755   0.1408   0.9953   1
1139.567   0.6931   0.1396   0.9953   1
1139.627   0.6795   0.1546   0.9953   1
1139.687   1.0786   0.1629   0.9953   1
1139.747   0.6804   0.1458   0.9953   1
1139.807   0.8617   0.1382   0.9953   1
1139.866   0.7651   0.1411   0.9953   0
1139.926   0.8032   0.1528   0.9953   0
1139.986   0.8982   0.1588   0.9952   0
1140.046   0.6493   0.1429   0.9952   0
1140.106   0.5654   0.1246   0.9952   0
1140.165   0.8550   0.1453   0.9952   0
1140.225   0.7706   0.1602   0.9952   0
1140.285   0.7716   0.1415   0.9952   0
1140.345   0.7393   0.1369   0.9952   0
1140.405   0.6164   0.1219   0.9952   0
1140.464   0.5259   0.1236   0.9952   0
1140.524   0.8677   0.1562   0.9952   0
1140.584   0.7311   0.1380   0.9952   0
1140.644   0.6119   0.1349   0.9952   0
1140.704   0.7070   0.1309   0.9952   0
1140.764   0.8609   0.1462   0.9951   0
1140.823   0.6333   0.1391   0.9951   0
1140.883   0.6128   0.1351   0.9951   0
1140.943   0.7567   0.1412   0.9951   0
1141.003   0.8241   0.1330   0.9951   0
1141.063   0.8678   0.1485   0.9951   0
1141.123   0.8294   0.1546   0.9951   0
1141.182   0.6005   0.1326   0.9951   0
1141.242   0.4973   0.1267   0.9951   0
1141.302   0.6865   0.1222   0.9951   0
1141.362   0.4246   0.1229   0.9951   0
1141.422   0.5769   0.1357   0.9951   0
1141.481   0.8098   0.1466   0.9951   0
1141.541   0.6060   0.1288   0.9950   0
1141.601   0.8209   0.1341   0.9950   0
1141.661   0.6346   0.1305   0.9950   0
1141.721   0.6393   0.1434   0.9950   0
1141.781   0.8033   0.1410   0.9950   0
1141.840   0.6714   0.1402   0.9950   0
1141.900   0.7111   0.1256   0.9950   0
1141.960   0.7854   0.1385   0.9950   0
1142.020   0.5600   0.1468   0.9950   0
1142.080   0.5444   0.1320   0.9950   0
1142.140   0.6738   0.1328   0.9950   0
1142.199   0.6445   0.1289   0.9950   0
1142.259   0.5521   0.1409   0.9950   0
1142.319   0.9031   0.1659   0.9949   0
1142.379   0.6720   0.1450   0.9949   0
1142.439   0.5495   0.1314   0.9949   0
1142.498   0.5649   0.1170   0.9949   0
1142.558   0.6569   0.1279   0.9949   0
1142.618   0.5846   0.1491   0.9949   0
1142.678   0.8157   0.1429   0.9949   0
1142.738   0.7829   0.1337   0.9949   0
1142.797   0.7322   0.1288   0.9949   0
1142.857   0.8843   0.1475   0.9949   0
1142.917   0.6778   0.1428   0.9949   0
1142.977   0.7511   0.1392   0.9949   0
1143.037   0.6557   0.1321   0.9948   0
1143.097   0.8191   0.1345   0.9948   0
1143.156   0.5329   0.1286   0.9948   0
1143.216   0.5018   0.1390   0.9948   0
1143.276   0.4516   0.1166   0.9948   0
1143.336   0.7105   0.1325   0.9948   0
1143.396   0.4257   0.1056   0.9948   0
1143.456   0.4463   0.1096   0.9948   0
1143.515   0.5522   0.1360   0.9948   0
1143.575   0.4164   0.1209   0.9948   0
1143.635   0.6591   0.1359   0.9948   0
1143.695   0.4382   0.1047   0.9948   0
1143.755   0.5166   0.1216   0.9947   0
1143.814   0.5702   0.1324   0.9947   0
1143.874   0.4561   0.1124   0.9947   0
1143.934   0.7276   0.1299   0.9947   0
1143.994   0.6219   0.1157   0.9947   0
1144.054   0.8141   0.1378   0.9947   0
1144.114   0.6023   0.1310   0.9947   0
1144.173   0.6214   0.1223   0.9947   0
1144.233   0.6290   0.1365   0.9947   0
1144.293   0.4318   0.1057   0.9947   0
1144.353   0.4789   0.1124   0.9947   0
1144.413   0.3686   0.1230   0.9946   0
1144.472   0.5182   0.1179   0.9946   0
1144.532   0.5466   0.1162   0.9946   0
1144.592   0.4159   0.0957   0.9946   0
1144.652   0.4008   0.1181   0.9946   0
1144.712   0.3855   0.1174   0.9946   0
1144.772   0.3159   0.1028   0.9946   0
1144.831   0.3990   0.1082   0.9946   0
1144.891   0.3363   0.0929   0.9946   0
1144.951   0.2493   0.0934   0.9946   0
1145.011   0.3260   0.1080   0.9946   0
1145.071   0.3019   0.1035   0.9945   0
1145.130   0.2562   0.0926   0.9945   0
1145.190   0.2495   0.0837   0.9945   0
1145.250   0.2984   0.1006   0.9945   0
1145.310   0.2536   0.1016   0.9945   0
1145.370   0.4538   0.1061   0.9945   0
1145.430   0.4507   0.1136   0.9945   0
1145.489   0.3912   0.0976   0.9945   0
1145.549   0.6628   0.1273   0.9945   0
1145.609   0.4435   0.1304   0.9945   0
1145.669   0.6604   0.1273   0.9945   0
1145.729   0.5194   0.1187   0.9944   0
1145.788   0.6384   0.1144   0.9944   0
1145.848   0.5943   0.1186   0.9944   0
1145.908   0.9683   0.1604   0.9944   0
1145.968   0.8857   0.1383   0.9944   0
1146.028   0.6315   0.1192   0.9944   0
1146.088   0.4991   0.1055   0.9944   0
1146.147   0.5145   0.1149   0.9944   0
1146.207   0.4532   0.1237   0.9944   0
1146.267   0.5083   0.1237   0.9944   0
1146.327   0.5770   0.1171   0.9944   0
1146.387   0.5023   0.1101   0.9943   0
1146.447   0.6594   0.1237   0.9943   0
1146.506   0.3177   0.1080   0.9943   0
1146.566   0.4590   0.1086   0.9943   0
1146.626   0.2676   0.0929   0.9943   0
1146.686   0.2486   0.0832   0.9943   0
1146.746   0.1751   0.0827   0.9943   0
1146.805   0.1363   0.0815   0.9943   0
1146.865   0.2070   0.0895   0.9943   0
1146.925   0.1632   0.0756   0.9943   0
1146.985   0.1324   0.0725   0.9942   0
1147.045   0.1910   0.0829   0.9942   0
1147.104   0.2648   0.1110   0.9942   0
1147.164   0.2097   0.0912   0.9942   0
1147.224   0.3005   0.0967   0.9942   0
1147.284   0.2431   0.0921   0.9942   0
1147.344   0.4917   0.1211   0.9942   0
1147.404   0.7449   0.1386   0.9942   0
1147.464   0.4703   0.1143   0.9942   0
1147.523   0.8268   0.1367   0.9942   0
1147.583   0.8022   0.1205   0.9941   0
1147.643   0.7399   0.1364   0.9941   0
1147.703   1.0136   0.1599   0.9941   0
1147.763   0.7979   0.1374   0.9941   0
1147.822   1.0732   0.1509   0.9941   0
1147.882   0.7271   0.1283   0.9941   0
1147.942   0.9380   0.1500   0.9941   0
1148.002   0.9878   0.1542   0.9941   0
1148.062   0.8309   0.1406   0.9941   1
1148.121   0.7034   0.1460   0.9941   1
1148.181   0.9481   0.1346   0.9940   1
1148.241   0.8073   0.1342   0.9940   1
1148.301   1.0106   0.1638   0.9940   1
1148.361   1.0139   0.1470   0.9940   1
1148.421   1.0690   0.1465   0.9940   1
1148.480   0.8560   0.1286   0.9940   1
1148.540   0.8076   0.1369   0.9940   1
1148.600   0.9219   0.1630   0.9940   1
1148.660   0.9728   0.1428   0.9940   1
1148.720   0.7257   0.1274   0.9939   1
1148.780   1.0411   0.1399   0.9939   1
1148.839   1.1085   0.1471   0.9939   1
1148.899   0.9919   0.1601   0.9939   1
1148.959   0.9494   0.1394   0.9939   1
1149.019   0.9253   0.1450   0.9939   1
1149.079   0.6738   0.1267   0.9939   1
1149.138   1.0757   0.1505   0.9939   1
1149.198   0.9304   0.1584   0.9939   1
1149.258   0.9290   0.1438   0.9939   1
1149.318   0.7999   0.1347   0.9938   1
1149.378   0.6448   0.1137   0.9938   1
1149.438   0.8762   0.1443   0.9938   1
1149.497   1.2245   0.1706   0.9938   1
1149.557   1.1098   0.1589   0.9938   1
1149.617   0.9338   0.1382   0.9938   1
1149.677   0.9014   0.1302   0.9938   1
1149.737   0.9914   0.1436   0.9938   1
1149.797   0.9274   0.1546   0.9938   1
1149.856   0.9392   0.1461   0.9937   1
1149.916   0.8987   0.1384   0.9937   1
1149.976   1.0580   0.1348   0.9937   1
1150.036   0.4521   0.1305   0.9937   1
1150.096   0.9782   0.1563   0.9937   1
1150.155   0.8822   0.1418   0.9937   1
1150.215   1.1059   0.1525   0.9937   1
1150.275   0.8921   0.1284   0.9937   1
1150.335   0.9003   0.1319   0.9937   1
1150.395   0.7899   0.1378   0.9936   1
1150.454   0.8041   0.1325   0.9936   1
1150.514   0.6809   0.1306   0.9936   1
1150.574   0.9114   0.1359   0.9936   1
1150.634   0.7258   0.1315   0.9936   1
1150.694   1.0509   0.1576   0.9936   1
1150.754   0.9464   0.1391   0.9936   1
1150.813   1.1011   0.1483   0.9936   1
1150.873   1.1340   0.1346   0.9935   1
1150.933   0.9929   0.1518   0.9935   1
1150.993   0.7862   0.1533   0.9935   1
1151.053   1.0405   0.1428   0.9935   1
1151.113   0.8865   0.1323   0.9935   1
1151.172   0.8987   0.1297   0.9935   1
1151.232   0.8927   0.1355   0.9935   1
1151.292   1.1295   0.1602   0.9935   1
1151.352   0.8170   0.1337   0.9935   1
1151.412   0.7655   0.1303   0.9934   1
1151.471   0.9743   0.1326   0.9934   1
1151.531   0.6123   0.1233   0.9934   1
1151.591   0.9571   0.1571   0.9934   1
1151.651   0.7665   0.1302   0.9934   1
1151.711   0.8567   0.1321   0.9934   1
1151.771   0.7831   0.1188   0.9934   1
1151.830   0.6823   0.1300   0.9934   1
1151.890   0.6333   0.1332   0.9933   1
1151.950   1.1290   0.1481   0.9933   1
1152.010   0.7966   0.1279   0.9933   1
1152.070   0.9191   0.1282   0.9933   1
1152.129   0.9853   0.1434   0.9933   1
1152.189   0.7812   0.1495   0.9933   1
1152.249   0.7992   0.1388   0.9933   0
1152.309   0.8712   0.1312   0.9933   0
1152.369   0.8338   0.1247   0.9932   0
1152.429   1.1685   0.1527   0.9932   0
1152.488   0.7288   0.1389   0.9932   0
1152.548   0.7568   0.1317   0.9932   0
1152.608   0.7910   0.1334   0.9932   0
1152.668   0.9534   0.1284   0.9932   0
1152.728   0.7713   0.1245   0.9932   0
1152.787   0.6458   0.1316   0.9932   0
1152.847   0.4525   0.1115   0.9931   0
1152.907   0.7160   0.1222   0.9931   0
1152.967   0.6086   0.1101   0.9931   0
1153.027   0.5490   0.1148   0.9931   0
1153.087   0.6079   0.1366   0.9931   0
1153.146   0.5828   0.1218   0.9931   0
1153.206   0.6261   0.1197   0.9931   0
1153.266   0.9697   0.1281   0.9931   0
1153.326   0.8994   0.1329   0.9930   0
1153.386   0.8314   0.1455   0.9930   0
1153.445   0.9177   0.1327   0.9930   0
1153.505   0.9002   0.1352   0.9930   0
1153.565   0.8690   0.1261   0.9930   0
1153.625   0.7512   0.1341   0.9930   0
1153.685   0.6206   0.1303   0.9930   0
1153.745   1.2326   0.1491   0.9930   0
1153.804   0.7679   0.1284   0.9929   0
1153.864   0.7854   0.1184   0.9929   0
1153.924   0.9487   0.1433   0.9929   0
1153.984   0.7175   0.1334   0.9929   0
1154.044   0.9370   0.1435   0.9929   0
1154.104   1.0032   0.1402   0.9929   0
1154.163   0.6382   0.1086   0.9929   0
1154.223   0.8814   0.1340   0.9928   0
1154.283   0.7541   0.1419   0.9928   0
1154.343   0.8277   0.1355   0.9928   0
1154.403   0.9200   0.1353   0.9928   0
1154.462   0.6857   0.1144   0.9928   0
1154.522   0.5098   0.1095   0.9928   0
1154.582   0.8631   0.1432   0.9928   0
1154.642   0.5041   0.1170   0.9927   0
1154.702   0.7436   0.1188   0.9927   0
1154.761   0.6750   0.1109   0.9927   0
1154.821   0.3956   0.1008   0.9927   0
1154.881   0.7096   0.1379   0.9927   0
1154.941   0.6799   0.1299   0.9927   0
1155.001   0.6674   0.1167   0.9927   0
1155.061   0.6214   0.1016   0.9926   0
1155.120   0.8143   0.1249   0.9926   0
1155.180   0.6234   0.1311   0.9926   0
1155.240   0.6242   0.1182   0.9926   0
1155.300   0.6514   0.1247   0.9926   0
1155.360   0.9375   0.1269   0.9926   0
1155.420   0.8302   0.1270   0.9926   0
1155.479   0.7168   0.1465   0.9925   0
1155.539   0.7941   0.1270   0.9925   0
1155.599   0.7842   0.1213   0.9925   0
1155.659   0.7107   0.1124   0.9925   0
1155.719   0.6638   0.1165   0.9925   0
1155.778   0.5316   0.1248   0.9925   0
1155.838   0.5781   0.1182   0.9925   0
1155.898   0.6600   0.1160   0.9924   0
1155.958   0.5924   0.1094   0.9924   0
1156.018   0.5423   0.1252   0.9924   0
1156.078   0.7365   0.1308   0.9924   0
1156.137   0.8176   0.1260   0.9924   0
1156.197   0.5685   0.1077   0.9924   0
1156.257   0.7121   0.1159   0.9924   0
1156.317   0.7092   0.1192   0.9923   0
1156.377   0.6617   0.1348   0.9923   0
1156.437   0.8059   0.1264   0.9923   0
1156.496   0.5660   0.1105   0.9923   0
1156.556   0.5811   0.1130   0.9923   0
1156.616   0.7477   0.1259   0.9923   0
1156.676   0.5263   0.1219   0.9922   0
1156.736   0.5145   0.1054   0.9922   0
1156.795   0.5955   0.1131   0.9922   0
1156.855   0.9309   0.1160   0.9922   0
1156.915   0.5965   0.1183   0.9922   0
1156.975   0.8458   0.1400   0.9922   0
1157.035   0.6300   0.1165   0.9922   0
1157.094   0.5308   0.1065   0.9921   0
1157.154   0.8375   0.1168   0.9921   0
1157.214   0.5337   0.1185   0.9921   0
1157.274   0.6833   0.1347   0.9921   0
1157.334   0.9745   0.1361   0.9921   0
1157.394   0.6705   0.1179   0.9921   0
1157.453   0.7327   0.1167   0.9920   0
1157.513   0.8040   0.1321   0.9920   0
1157.573   0.7805   0.1435   0.9920   0
1157.633   0.7258   0.1230   0.9920   0
1157.693   0.6446   0.1222   0.9920   0
1157.753   0.9209   0.1201   0.9920   0
1157.812   0.6388   0.1210   0.9919   0
1157.872   0.7472   0.1351   0.9919   0
1157.932   0.5238   0.1107   0.9919   0
1157.992   0.7029   0.1173   0.9919   0
1158.052   0.5656   0.1037   0.9919   0
1158.111   0.8519   0.1218   0.9919   0
1158.171   0.7199   0.1266   0.9919   0
1158.231   0.5256   0.1122   0.9918   0
1158.291   0.7980   0.1269   0.9918   0
1158.351   0.8120   0.1182   0.9918   0
1158.411   0.6639   0.1102   0.9918   0
1158.470   0.7315   0.1358   0.9918   0
1158.530   0.7102   0.1185   0.9917   0
1158.590   0.7898   0.1246   0.9917   0
1158.650   0.8030   0.1165   0.9917   0
1158.710   0.7547   0.1245   0.9917   0
1158.769   0.6926   0.1279   0.9917   0
1158.829   0.7801   0.1251   0.9917   0
1158.889   0.6077   0.1218   0.9916   0
1158.949   0.9263   0.1250   0.9916   0
1159.009   0.6787   0.1189   0.9916   0
1159.069   0.6159   0.1312   0.9916   0
1159.128   0.6337   0.1141   0.9916   0
1159.188   0.6855   0.1108   0.9916   0
1159.248   0.8237   0.1148   0.9915   0
1159.308   0.7981   0.1205   0.9915   0
1159.368   0.8824   0.1446   0.9915   0
1159.427   0.6532   0.1122   0.9915   0
1159.487   0.8391   0.1212   0.9915   0
1159.547   0.6866   0.1097   0.9915   0
1159.607   0.7347   0.1176   0.9914   0
1159.667   0.7012   0.1295   0.9914   0
1159.727   0.7382   0.1256   0.9914   0
1159.786   0.5269   0.1050   0.9914   0
1159.846   0.7407   0.1155   0.9914   0
1159.906   0.7817   0.1182   0.9913   0
1159.966   0.7312   0.1401   0.9913   0
1160.026   0.9326   0.1321   0.9913   0
1160.085   0.6051   0.1174   0.9913   0
1160.145   0.7351   0.1079   0.9913   0
1160.205   0.7719   0.1240   0.9913   0
1160.265   0.6081   0.1245   0.9912   0
1160.325   0.7739   0.1246   0.9912   0
1160.385   0.5141   0.1087   0.9912   0
1160.444   0.9448   0.1214   0.9912   0
1160.504   0.9752   0.1355   0.9912   0
1160.564   0.8164   0.1379   0.9911   0
1160.624   0.7632   0.1226   0.9911   0
1160.684   0.6843   0.1149   0.9911   0
1160.744   1.0346   0.1255   0.9911   0
1160.803   0.8028   0.1219   0.9911   0
1160.863   0.8094   0.1400   0.9911   0
1160.923   0.7966   0.1258   0.9910   0
1160.983   0.8627   0.1352   0.9910   0
1161.043   0.8715   0.1184   0.9910   0
1161.102   0.6632   0.1182   0.9910   0
1161.162   0.8129   0.1407   0.9910   0
1161.222   0.8955   0.1248   0.9909   0
1161.282   0.7385   0.1216   0.9909   0
1161.342   0.5856   0.1081   0.9909   0
1161.401   0.7515   0.1196   0.9909   0
1161.461   0.9568   0.1413   0.9909   0
1161.521   0.7526   0.1235   0.9908   0
1161.581   0.7051   0.1202   0.9908   0
1161.641   0.6462   0.1073   0.9908   0
1161.701   0.8028   0.1193   0.9908   0
1161.760   0.7430   0.1325   0.9908   0
1161.820   0.8437   0.1210   0.9907   0
1161.880   0.5761   0.1129   0.9907   0
1161.940   0.7158   0.1098   0.9907   0
1162.000   0.7110   0.1130   0.9907   0
1162.060   0.6073   0.1234   0.9907   0
1162.119   0.6017   0.1120   0.9906   0
1162.179   0.6665   0.1140   0.9906   0
1162.239   1.0505   0.1232   0.9906   0
1162.299   0.6846   0.1241   0.9906   0
1162.359   0.7665   0.1278   0.9906   0
1162.418   0.7942   0.1172   0.9905   0
1162.478   0.9767   0.1310   0.9905   0
1162.538   0.8235   0.1180   0.9905   0
1162.598   0.7919   0.1172   0.9905   0
1162.658   0.9437   0.1424   0.9905   0
1162.718   0.8248   0.1189   0.9904   0
1162.777   0.6670   0.1116   0.9904   0
1162.837   0.8007   0.1121   0.9904   0
1162.897   0.6167   0.1200   0.9904   0
1162.957   0.9281   0.1427   0.9903   0
1163.017   0.7830   0.1197   0.9903   0
1163.077   0.7098   0.1159   0.9903   0
1163.136   0.6628   0.1053   0.9903   0
1163.196   0.5227   0.1068   0.9903   0
1163.256   0.8675   0.1467   0.9902   0
1163.316   0.6137   0.1217   0.9902   0
1163.376   0.6779   0.1121   0.9902   0
1163.435   0.6545   0.1020   0.9902   0
1163.495   0.7384   0.1239   0.9901   0
1163.555   0.7263   0.1279   0.9901   0
1163.615   0.8678   0.1238   0.9901   0
1163.675   0.6949   0.1136   0.9901   0
1163.734   0.6726   0.1081   0.9901   0
1163.794   0.7400   0.1252   0.9900   0
1163.854   0.5948   0.1240   0.9900   0
1163.914   0.6737   0.1228   0.9900   0
1163.974   0.6882   0.1154   0.9900   0
1164.034   0.5728   0.1002   0.9899   0
1164.093   0.5460   0.1082   0.9899   0
1164.153   1.0082   0.1422   0.9899   0
1164.213   0.8458   0.1235   0.9899   0
1164.273   0.7622   0.1217   0.9899   0
1164.333   0.6615   0.1064   0.9898   0
1164.393   0.7099   0.1198   0.9898   0
1164.452   0.8401   0.1410   0.9898   0
1164.512   0.7720   0.1173   0.9898   0
1164.572   0.7628   0.1147   0.9897   0
1164.632   0.8236   0.1126   0.9897   0
1164.692   0.8291   0.1180   0.9897   0
1164.751   0.9863   0.1466   0.9897   0
1164.811   0.5382   0.1068   0.9896   0
1164.871   0.9394   0.1302   0.9896   0
1164.931   0.5998   0.1053   0.9896   0
1164.991   0.7499   0.1180   0.9896   0
1165.051   0.7137   0.1365   0.9896   0
1165.110   0.7264   0.1186   0.9895   0
1165.170   0.9670   0.1274   0.9895   0
1165.230   0.6815   0.1105   0.9895   0
1165.290   0.8134   0.1222   0.9895   0
1165.350   0.8518   0.1407   0.9894   0
1165.409   0.9167   0.1248   0.9894   0
1165.469   0.8113   0.1262   0.9894   0
1165.529   0.8382   0.1151   0.9894   0
1165.589   0.8768   0.1253   0.9893   0
1165.649   1.0466   0.1512   0.9893   0
1165.709   0.7962   0.1258   0.9893   0
1165.768   0.8968   0.1297   0.9893   0
1165.828   1.0303   0.1249   0.9892   0
1165.888   0.9250   0.1311   0.9892   0
1165.948   0.9698   0.1432   0.9892   0
1166.008   0.7951   0.1233   0.9892   0
1166.068   0.8503   0.1264   0.9891   0
1166.127   0.9476   0.1206   0.9891   0
1166.187   0.8381   0.1240   0.9891   0
1166.247   0.7263   0.1268   0.9891   0
1166.307   1.0111   0.1357   0.9890   0
1166.367   0.8836   0.1230   0.9890   0
1166.426   0.9518   0.1209   0.9890   0
1166.486   0.8987   0.1296   0.9889   0
1166.546   0.7518   0.1399   0.9889   0
1166.606   0.7558   0.1165   0.9889   0
1166.666   0.8345   0.1212   0.9889   0
1166.725   0.6873   0.1117   0.9888   0
1166.785   0.6091   0.1188   0.9888   0
1166.845   0.6869   0.1248   0.9888   0
1166.905   0.6590   0.1200   0.9888   0
1166.965   0.8932   0.1270   0.9887   0
1167.025   0.6919   0.1081   0.9887   0
1167.084   0.5026   0.1118   0.9887   0
1167.144   0.9774   0.1466   0.9887   0
1167.204   1.0037   0.1338   0.9886   0
1167.264   0.9098   0.1251   0.9886   0
1167.324   0.6029   0.0990   0.9886   0
1167.384   0.7202   0.1244   0.9885   0
1167.443   0.9049   0.1411   0.9885   0
1167.503   0.6546   0.1147   0.9885   0
1167.563   0.6773   0.1087   0.9885   0
1167.623   0.8092   0.1088   0.9884   0
1167.683   0.6008   0.1120   0.9884   0
1167.742   0.6365   0.1220   0.9884   0
1167.802   0.7211   0.1137   0.9884   0
1167.862   0.7527   0.1177   0.9883   0
1167.922   0.6208   0.0974   0.9883   0
1167.982   0.6801   0.1076   0.9883   0
1168.042   0.6628   0.1201   0.9882   0
1168.101   0.7330   0.1142   0.9882   0
1168.161   0.5460   0.1052   0.9882   0
1168.221   1.0089   0.1192   0.9882   0
1168.281   0.5829   0.1101   0.9881   0
1168.341   0.7740   0.1225   0.9881   0
1168.401   0.8341   0.1212   0.9881   0
1168.460   0.8144   0.1162   0.9880   0
1168.520   0.4463   0.0951   0.9880   0
1168.580   0.7214   0.1154   0.9880   0
1168.640   0.4640   0.1019   0.9879   0
1168.700   0.6516   0.1071   0.9879   0
1168.759   0.6314   0.1062   0.9879   0
1168.819   0.7610   0.1067   0.9879   0
1168.879   0.4281   0.0988   0.9878   0
1168.939   0.3815   0.1019   0.9878   0
1168.999   0.5833   0.1068   0.9878   0
1169.058   0.4250   0.1033   0.9877   0
1169.118   0.6984   0.1079   0.9877   0
1169.178   0.5852   0.1031   0.9877   0
1169.238   0.5081   0.1089   0.9876   0
1169.298   0.5482   0.1032   0.9876   0
1169.358   0.6711   0.1132   0.9876   0
1169.417   0.6033   0.1025   0.9875   0
1169.477   0.5782   0.1064   0.9875   0
1169.537   0.6195   0.1215   0.9875   0
1169.597   0.4626   0.1005   0.9875   0
1169.657   0.7827   0.1200   0.9874   0
1169.717   0.4105   0.0889   0.9874   0
1169.776   0.4751   0.1026   0.9874   0
1169.836   0.6968   0.1232   0.9873   0
1169.896   0.7876   0.1143   0.9873   0
1169.956   0.7084   0.1093   0.9873   0
1170.016   0.6964   0.1012   0.9872   0
1170.075   0.6801   0.1102   0.9872   0
1170.135   0.7435   0.1302   0.9872   0
1170.195   0.5564   0.1041   0.9871   0
1170.255   0.6268   0.1180   0.9871   0
1170.315   0.8727   0.1099   0.9871   0
1170.375   0.6351   0.1031   0.9870   0
1170.434   0.4713   0.1115   0.9870   0
1170.494   0.5661   0.1123   0.9870   0
1170.554   0.7290   0.1106   0.9869   0
1170.614   0.4915   0.0933   0.9869   0
1170.674   0.5309   0.1072   0.9869   0
1170.733   0.6890   0.1193   0.9868   0
1170.793   0.6086   0.1085   0.9868   0
1170.853   0.7158   0.1152   0.9868   0
1170.913   0.4923   0.0910   0.9867   0
1170.973   0.4590   0.0972   0.9867   0
1171.033   0.7249   0.1241   0.9867   0
1171.092   0.3095   0.0838   0.9866   0
1171.152   0.6931   0.1150   0.9866   0
1171.212   0.5391   0.0957   0.9866   0
1171.272   0.5110   0.1040   0.9865   0
1171.332   0.5781   0.1163   0.9865   0
1171.391   0.4370   0.0899   0.9864   0
1171.451   0.4144   0.1017   0.9864   0
1171.511   0.3962   0.0872   0.9864   0
1171.571   0.5527   0.0995   0.9863   0
1171.631   0.3129   0.0900   0.9863   0
1171.691   0.4522   0.0945   0.9863   0
1171.750   0.3977   0.0954   0.9862   0
1171.810   0.5432   0.0943   0.9862   0
1171.870   0.4481   0.0914   0.9862   0
1171.930   0.3470   0.0988   0.9861   0
1171.990   0.4807   0.0951   0.9861   0
1172.049   0.5522   0.0997   0.9860   0
1172.109   0.5087   0.0915   0.9860   0
1172.169   0.3951   0.0864   0.9860   0
1172.229   0.7003   0.1176   0.9859   0
1172.289   0.5340   0.1033   0.9859   0
1172.349   0.4490   0.0952   0.9859   0
1172.408   0.5478   0.0928   0.9858   0
1172.468   0.5700   0.1048   0.9858   0
1172.528   0.3567   0.0960   0.9857   0
1172.588   0.4880   0.1034   0.9857   0
1172.648   0.5483   0.0989   0.9857   0
1172.708   0.5857   0.0976   0.9856   0
1172.767   0.3402   0.0961   0.9856   0
1172.827   0.4910   0.1074   0.9856   0
1172.887   0.5005   0.1016   0.9855   0
1172.947   0.5119   0.1032   0.9855   0
1173.007   0.5045   0.0907   0.9854   0
1173.066   0.6512   0.1082   0.9854   0
1173.126   0.4816   0.1107   0.9854   0
1173.186   0.5954   0.1199   0.9853   0
1173.246   0.4944   0.1006   0.9853   0
1173.306   0.4058   0.0842   0.9852   0
1173.365   0.5232   0.1042   0.9852   0
1173.425   0.5469   0.1127   0.9852   0
1173.485   0.4842   0.1010   0.9851   0
1173.545   0.4689   0.0994   0.9851   0
1173.605   0.5741   0.0956   0.9850   0
1173.665   0.4682   0.0949   0.9850   0
1173.724   0.5028   0.1191   0.9850   0
1173.784   0.4582   0.1042   0.9849   0
1173.844   0.5612   0.1009   0.9849   0
1173.904   0.4142   0.0864   0.9848   0
1173.964   0.4354   0.0973   0.9848   0
1174.024   0.6058   0.1120   0.9847   0
1174.083   0.3564   0.0886   0.9847   0
1174.143   0.5047   0.1008   0.9847   0
1174.203   0.3064   0.0778   0.9846   0
1174.263   0.3923   0.0876   0.9846   0
1174.323   0.3365   0.0949   0.9845   0
1174.382   0.4893   0.0982   0.9845   0
1174.442   0.4257   0.0925   0.9844   0
1174.502   0.2822   0.0752   0.9844   0
1174.562   0.4893   0.0966   0.9844   0
1174.622   0.3431   0.0923   0.9843   0
1174.682   0.3746   0.0917   0.9843   0
1174.741   0.6171   0.1052   0.9842   0
1174.801   0.2909   0.0779   0.9842   0
1174.861   0.4173   0.0927   0.9841   0
1174.921   0.4096   0.1017   0.9841   0
1174.981   0.3358   0.0915   0.9840   0
1175.041   0.4105   0.0899   0.9840   0
1175.100   0.2749   0.0835   0.9839   0
1175.160   0.4936   0.1003   0.9839   0
1175.220   0.5214   0.1080   0.9839   0
1175.280   0.4699   0.0940   0.9838   0
1175.340   0.4852   0.0985   0.9838   0
1175.399   0.4805   0.0853   0.9837   0
1175.459   0.5141   0.0996   0.9837   0
1175.519   0.4289   0.0965   0.9836   0
1175.579   0.3376   0.0880   0.9836   0
1175.639   0.4118   0.0932   0.9835   0
1175.698   0.4499   0.0875   0.9835   0
1175.758   0.3629   0.0886   0.9834   0
1175.818   0.3174   0.0956   0.9834   0
1175.878   0.2527   0.0821   0.9833   0
1175.938   0.2877   0.0861   0.9833   0
1175.998   0.3791   0.0837   0.9832   0
1176.057   0.2950   0.0839   0.9832   0
1176.117   0.3180   0.0902   0.9831   0
1176.177   0.2175   0.0709   0.9831   0
1176.237   0.3039   0.0818   0.9830   0
1176.297   0.3483   0.0774   0.9830   0
1176.357   0.1951   0.0700   0.9829   0
1176.416   0.1674   0.0759   0.9829   0
1176.476   0.3666   0.0917   0.9828   0
1176.536   0.2968   0.0853   0.9828   0
1176.596   0.2261   0.0693   0.9827   0
1176.656   0.3361   0.0873   0.9827   0
1176.715   0.2059   0.0807   0.9826   0
1176.775   0.1766   0.0749   0.9826   0
1176.835   0.2182   0.0719   0.9825   0
1176.895   0.1580   0.0636   0.9825   0
1176.955   0.2069   0.0722   0.9824   0
1177.015   0.2518   0.0846   0.9824   0
1177.074   0.2388   0.0731   0.9823   0
1177.134   0.3385   0.0811   0.9823   0
1177.194   0.1896   0.0639   0.9822   0
1177.254   0.2254   0.0727   0.9822   0
1177.314   0.2106   0.0817   0.9821   0
1177.373   0.1473   0.0692   0.9821   0
1177.433   0.2394   0.0744   0.9820   0
1177.493   0.2612   0.0697   0.9820   0
1177.553   0.2828   0.0791   0.9819   0
1177.613   0.2506   0.0830   0.9818   0
1177.673   0.2722   0.0781   0.9818   0
1177.732   0.3161   0.0816   0.9817   0
1177.792   0.2037   0.0709   0.9817   0
1177.852   0.2695   0.0771   0.9816   0
1177.912   0.3333   0.0910   0.9816   0
1177.972   0.2306   0.0759   0.9815   0
1178.031   0.3065   0.0817   0.9815   0
1178.091   0.2349   0.0710   0.9814   0
1178.151   0.3397   0.0863   0.9813   0
1178.211   0.2638   0.0913   0.9813   0
1178.271   0.3426   0.0897   0.9812   0
1178.331   0.4084   0.0936   0.9812   0
1178.390   0.3998   0.0844   0.9811   0
1178.450   0.3311   0.0888   0.9810   0
1178.510   0.4280   0.1101   0.9810   0
1178.570   0.3365   0.0888   0.9809   0
1178.630   0.5242   0.1017   0.9809   0
1178.689   0.5401   0.1031   0.9808   0
1178.749   0.5326   0.1035   0.9808   0
1178.809   0.4222   0.1093   0.9807   0
1178.869   0.5191   0.0998   0.9806   0
1178.929   0.5215   0.1000   0.9806   0
1178.989   0.7647   0.1045   0.9805   0
1179.048   0.7239   0.1124   0.9804   0
1179.108   0.6457   0.1264   0.9804   0
1179.168   0.4919   0.1077   0.9803   0
1179.228   0.7319   0.1113   0.9803   0
1179.288   0.8141   0.1107   0.9802   0
1179.348   0.4999   0.1078   0.9801   0
1179.407   0.7158   0.1346   0.9801   0
1179.467   0.8178   0.1193   0.9800   0
1179.527   0.9853   0.1280   0.9799   1
1179.587   0.6485   0.1065   0.9799   1
1179.647   0.6934   0.1124   0.9798   1
1179.706   0.7106   0.1243   0.9798   1
1179.766   0.8776   0.1231   0.9797   1
1179.826   0.8483   0.1239   0.9796   1
1179.886   0.8276   0.1142   0.9796   1
1179.946   0.8000   0.1161   0.9795   1
1180.005   0.7211   0.1251   0.9794   1
1180.065   1.0390   0.1334   0.9794   1
1180.125   0.8994   0.1270   0.9793   1
1180.185   0.7981   0.1191   0.9792   1
1180.245   0.8943   0.1255   0.9792   1
1180.305   0.9030   0.1347   0.9791   1
1180.365   0.8216   0.1248   0.9790   1
1180.424   0.8312   0.1209   0.9790   1
1180.484   0.8528   0.1143   0.9789   1
1180.544   0.8200   0.1235   0.9788   1
1180.604   0.8204   0.1326   0.9787   1
1180.664   0.9677   0.1332   0.9787   1
1180.723   0.7519   0.1198   0.9786   1
1180.783   0.6637   0.1109   0.9785   1
1180.843   0.5779   0.1051   0.9785   1
1180.903   0.6906   0.1290   0.9784   1
1180.963   0.6213   0.1109   0.9783   1
1181.022   0.5682   0.1142   0.9783   1
1181.082   0.7092   0.1081   0.9782   1
1181.142   0.7258   0.1171   0.9781   1
1181.202   0.5795   0.1194   0.9780   1
1181.262   0.6977   0.1129   0.9780   1
1181.322   0.9030   0.1230   0.9779   1
1181.381   0.7212   0.1103   0.9778   1
1181.441   0.7985   0.1206   0.9777   1
1181.501   0.7595   0.1324   0.9777   1
1181.561   0.6799   0.1103   0.9776   1
1181.621   0.7595   0.1143   0.9775   1
1181.681   0.9454   0.1141   0.9774   1
1181.740   0.7467   0.1124   0.9774   1
1181.800   1.0610   0.1419   0.9773   1
1181.860   0.7491   0.1206   0.9772   1
1181.920   0.7418   0.1173   0.9771   1
1181.980   0.9234   0.1226   0.9771   1
1182.039   0.7568   0.1193   0.9770   1
1182.099   0.6535   0.1259   0.9769   1
1182.159   0.9537   0.1289   0.9768   1
1182.219   0.9506   0.1279   0.9767   1
1182.279   0.9905   0.1152   0.9767   1
1182.339   1.0103   0.1239   0.9766   1
1182.398   0.6241   0.1312   0.9765   1
1182.458   0.6445   0.1083   0.9764   1
1182.518   0.8319   0.1177   0.9763   1
1182.578   0.7711   0.1053   0.9763   1
1182.638   0.6942   0.1130   0.9762   1
1182.698   0.7610   0.1308   0.9761   1
1182.757   0.6818   0.1152   0.9760   1
1182.817   0.7719   0.1168   0.9759   1
1182.877   1.0099   0.1247   0.9758   1
1182.937   0.8855   0.1223   0.9758   1
1182.997   0.9217   0.1369   0.9757   1
1183.056   0.9554   0.1264   0.9756   1
1183.116   0.8799   0.1213   0.9755   1
1183.176   1.0138   0.1173   0.9754   1
1183.236   0.7770   0.1211   0.9753   1
1183.296   1.1140   0.1461   0.9752   1
1183.355   1.0556   0.1300   0.9751   1
1183.415   0.8068   0.1195   0.9751   1
1183.475   0.9952   0.1168   0.9750   1
1183.535   0.8667   0.1236   0.9749   1
1183.595   1.1849   0.1472   0.9748   1
1183.655   0.7900   0.1154   0.9747   1
1183.714   0.9283   0.1203   0.9746   1
1183.774   0.7201   0.1055   0.9745   1
1183.834   0.8941   0.1216   0.9744   1
1183.894   0.7005   0.1199   0.9743   1
1183.954   0.5894   0.1125   0.9742   1
1184.014   0.6119   0.1108   0.9741   1
1184.073   0.5294   0.0961   0.9741   0
1184.133   0.8835   0.1191   0.9740   0
1184.193   0.7420   0.1268   0.9739   0
1184.253   0.9705   0.1250   0.9738   0
1184.313   0.7340   0.1241   0.9737   0
1184.372   0.8024   0.1084   0.9736   0
1184.432   0.9194   0.1235   0.9735   0
1184.492   0.6876   0.1180   0.9734   0
1184.552   0.6037   0.1078   0.9733   0
1184.612   0.6989   0.1093   0.9732   0
1184.672   0.8086   0.1094   0.9731   0
1184.731   0.6507   0.1091   0.9730   0
1184.791   0.8249   0.1261   0.9729   0
1184.851   0.6929   0.1050   0.9728   0
1184.911   0.7375   0.1094   0.9727   0
1184.971   0.4844   0.0879   0.9726   0
1185.030   0.4655   0.0968   0.9725   0
1185.090   0.6980   0.1156   0.9724   0
1185.150   0.4805   0.0985   0.9723   0
1185.210   0.5834   0.1056   0.9722   0
1185.270   0.6999   0.0989   0.9721   0
1185.330   0.6793   0.1041   0.9720   0
1185.389   0.6430   0.1219   0.9719   0
1185.449   0.6597   0.1070   0.9718   0
1185.509   0.6394   0.1053   0.9717   0
1185.569   0.7829   0.1020   0.9715   0
1185.629   0.6617   0.1096   0.9714   0
1185.688   0.7385   0.1231   0.9713   0
1185.748   0.7574   0.1146   0.9712   0
1185.808   0.5307   0.1072   0.9711   0
1185.868   0.7791   0.1072   0.9710   0
1185.928   0.7903   0.1099   0.9709   0
1185.988   0.5269   0.1088   0.9708   0
1186.047   0.4910   0.1069   0.9707   0
1186.107   0.7051   0.1117   0.9706   0
1186.167   0.5210   0.0956   0.9704   0
1186.227   0.5999   0.1035   0.9703   0
1186.287   0.6926   0.1202   0.9702   0
1186.346   0.7007   0.1055   0.9701   0
1186.406   0.4854   0.0984   0.9700   0
1186.466   0.5945   0.0989   0.9699   0
1186.526   0.4975   0.0941   0.9697   0
1186.586   0.5008   0.1078   0.9696   0
1186.646   0.5703   0.1028   0.9695   0
1186.705   0.7739   0.1109   0.9694   0
1186.765   0.5241   0.0950   0.9693   0
1186.825   0.6326   0.1062   0.9691   0
1186.885   0.7137   0.1183   0.9690   0
1186.945   0.6619   0.1082   0.9689   0
1187.005   0.7440   0.1124   0.9688   0
1187.064   0.5216   0.0914   0.9687   0
1187.124   0.6050   0.0982   0.9685   0
1187.184   0.7041   0.1235   0.9684   0
1187.244   0.9107   0.1202   0.9683   0
1187.304   0.8802   0.1252   0.9681   0
1187.363   0.9129   0.1124   0.9680   0
1187.423   0.5526   0.1040   0.9679   0
1187.483   0.8967   0.1248   0.9678   0
1187.543   0.8359   0.1138   0.9676   0
1187.603   0.8602   0.1210   0.9675   0
1187.662   0.8020   0.1042   0.9674   0
1187.722   0.8460   0.1170   0.9672   0
1187.782   0.8550   0.1253   0.9671   0
1187.842   0.6237   0.1051   0.9670   0
1187.902   0.7651   0.1199   0.9668   0
1187.962   0.7112   0.1050   0.9667   0
1188.021   0.6284   0.1100   0.9666   0
1188.081   0.7995   0.1239   0.9664   0
1188.141   0.6825   0.1062   0.9663   0
1188.201   0.6495   0.1092   0.9661   0
1188.261   0.6661   0.1002   0.9660   0
1188.321   0.7181   0.1071   0.9659   0
1188.380   0.6817   0.1180   0.9657   0
1188.440   0.7043   0.1052   0.9656   0
1188.500   0.7401   0.1107   0.9654   0
1188.560   0.7288   0.1033   0.9653   0
1188.620   0.7718   0.1092   0.9651   0
1188.679   0.7581   0.1197   0.9650   0
1188.739   0.8003   0.1112   0.9649   0
1188.799   0.8732   0.1190   0.9647   0
1188.859   0.9980   0.1142   0.9646   0
1188.919   0.6076   0.1094   0.9644   0
1188.979   0.8381   0.1247   0.9643   0
1189.038   0.6652   0.1088   0.9641   0
1189.098   0.9852   0.1212   0.9640   0
1189.158   0.8395   0.1124   0.9638   0
1189.218   0.7654   0.1079   0.9636   0
1189.278   0.7674   0.1309   0.9635   0
1189.338   0.8519   0.1151   0.9633   0
1189.397   0.8994   0.1176   0.9632   0
1189.457   0.6326   0.1013   0.9630   0
1189.517   0.9740   0.1168   0.9629   0
1189.577   0.6036   0.1169   0.9627   0
1189.637   0.4690   0.0989   0.9625   0
1189.696   0.7352   0.1039   0.9624   0
1189.756   0.6267   0.0978   0.9622   0
1189.816   0.8359   0.1139   0.9620   0
1189.876   0.5440   0.1030   0.9619   0
1189.936   0.7034   0.1036   0.9617   0
1189.995   0.5526   0.0962   0.9615   0
1190.055   0.6697   0.0988   0.9614   0
1190.115   0.3683   0.0816   0.9612   0
1190.175   0.3690   0.0930   0.9610   0
1190.235   0.3970   0.0888   0.9609   0
1190.295   0.3062   0.0795   0.9607   0
1190.354   0.1413   0.0599   0.9605   0
1190.414   0.1137   0.0585   0.9603   0
1190.474   0.2206   0.0814   0.9602   0
1190.534   0.1074   0.0549   0.9600   0
1190.594   0.1707   0.0604   0.9598   0
1190.654   0.1334   0.0556   0.9596   0
1190.713   0.1393   0.0602   0.9594   0
1190.773   0.1996   0.0708   0.9593   0
1190.833   0.2030   0.0692   0.9591   0
1190.893   0.2201   0.0711   0.9589   0
1190.953   0.4522   0.0874   0.9587   0
1191.012   0.4157   0.0866   0.9585   0
1191.072   0.4797   0.0956   0.9583   0
1191.132   0.3666   0.0875   0.9581   0
1191.192   0.3859   0.0847   0.9579   0
1191.252   0.4501   0.0822   0.9577   0
1191.312   0.5272   0.0973   0.9575   0
1191.371   0.5154   0.1005   0.9573   0
1191.431   0.5473   0.0950   0.9571   0
1191.491   0.6148   0.1028   0.9570   0
1191.551   0.5459   0.0927   0.9568   0
1191.611   0.7550   0.1062   0.9565   0
1191.670   0.5163   0.1073   0.9563   0
1191.730   0.7848   0.1066   0.9561   0
1191.790   0.5188   0.0922   0.9559   0
1191.850   0.3866   0.0790   0.9557   0
1191.910   0.5122   0.0953   0.9555   0
1191.970   0.4496   0.1050   0.9553   0
1192.029   0.4813   0.0905   0.9551   0
1192.089   0.3020   0.0771   0.9549   0
1192.149   0.3211   0.0706   0.9547   0
1192.209   0.2705   0.0731   0.9545   0
1192.269   0.1958   0.0740   0.9542   0
1192.328   0.1467   0.0581   0.9540   0
1192.388   0.1014   0.0517   0.9538   0
1192.448   0.0394   0.0400   0.9536   0
1192.508   0.0580   0.0481   0.9533   0
1192.568   0.0531   0.0530   0.9531   0
1192.628   0.0366   0.0423   0.9529   0
1192.687   0.0874   0.0513   0.9527   0
1192.747   0.0823   0.0503   0.9524   0
1192.807   0.2470   0.0702   0.9522   0
1192.867   0.3447   0.0858   0.9520   0
1192.927   0.3271   0.0801   0.9517   0
1192.986   0.2642   0.0744   0.9515   0
1193.046   0.3027   0.0677   0.9513   0
1193.106   0.1816   0.0634   0.9510   0
1193.166   0.1882   0.0734   0.9508   0
1193.226   0.1774   0.0662   0.9505   0
1193.286   0.0398   0.0451   0.9503   0
1193.345   0.0938   0.0509   0.9500   0
1193.405   0.0817   0.0492   0.9498   0
1193.465   0.1617   0.0626   0.9495   0
1193.525   0.0922   0.0544   0.9493   0
1193.585   0.1672   0.0585   0.9490   0
1193.645   0.1159   0.0543   0.9488   0
1193.704   0.1940   0.0617   0.9485   0
1193.764   0.1862   0.0704   0.9482   0
1193.824   0.2778   0.0739   0.9480   0
1193.884   0.4904   0.0935   0.9477   0
1193.944   0.4569   0.0826   0.9474   0
1194.003   0.4359   0.0882   0.9472   0
1194.063   0.3652   0.0931   0.9469   0
1194.123   0.7017   0.1039   0.9466   0
1194.183   0.4644   0.0919   0.9463   0
1194.243   0.5226   0.0824   0.9461   0
1194.302   0.6739   0.1010   0.9458   0
1194.362   0.4389   0.0948   0.9455   0
1194.422   0.4012   0.0879   0.9452   0
1194.482   0.5201   0.0945   0.9449   0
1194.542   0.6061   0.0918   0.9446   0
1194.602   0.4333   0.0845   0.9444   0
1194.661   0.5638   0.1014   0.9441   0
1194.721   0.5115   0.0869   0.9438   0
1194.781   0.4456   0.0914   0.9435   0
1194.841   0.3984   0.0808   0.9432   0
1194.901   0.3900   0.0843   0.9429   0
1194.961   0.3233   0.0921   0.9426   0
1195.020   0.2523   0.0759   0.9422   0
1195.080   0.1445   0.0598   0.9419   0
1195.140   0.1301   0.0525   0.9416   0
1195.200   0.1304   0.0552   0.9413   0
1195.260   0.0372   0.0416   0.9410   0
1195.319   0.0729   0.0477   0.9407   0
1195.379   0.0657   0.0464   0.9403   0
1195.439   0.0663   0.0396   0.9400   0
1195.499   0.0465   0.0416   0.9397   0
1195.559   0.0736   0.0538   0.9394   0
1195.619   0.0959   0.0551   0.9390   0
1195.678   0.1953   0.0642   0.9387   0
1195.738   0.2708   0.0697   0.9384   0
1195.798   0.3738   0.0779   0.9380   0
1195.858   0.5304   0.0964   0.9377   0
1195.918   0.4767   0.0898   0.9373   0
1195.978   0.4843   0.0881   0.9370   0
1196.037   0.4108   0.0761   0.9366   0
1196.097   0.4927   0.1013   0.9363   0
1196.157   0.4524   0.0962   0.9359   0
1196.217   0.5878   0.0936   0.9355   0
1196.277   0.4079   0.0886   0.9352   0
1196.336   0.5005   0.0812   0.9348   0
1196.396   0.4477   0.0869   0.9344   0
1196.456   0.5410   0.1016   0.9340   0
1196.516   0.4475   0.0860   0.9337   0
1196.576   0.4112   0.0926   0.9333   0
1196.635   0.4963   0.0840   0.9329   1
1196.695   0.4277   0.0891   0.9325   1
1196.755   0.6076   0.1030   0.9321   1
1196.815   0.6953   0.1004   0.9317   1
1196.875   0.5864   0.0938   0.9313   1
1196.935   0.8053   0.0961   0.9309   1
1196.994   0.7191   0.1044   0.9305   1
1197.054   0.5673   0.1059   0.9301   1
1197.114   0.7998   0.1077   0.9297   1
1197.174   1.0361   0.1206   0.9293   1
1197.234   0.7363   0.0968   0.9289   1
1197.294   0.7289   0.1063   0.9284   1
1197.353   0.6596   0.1119   0.9280   1
1197.413   0.8016   0.1079   0.9276   1
1197.473   0.5630   0.0999   0.9272   1
1197.533   0.8128   0.1049   0.9267   1
1197.593   0.8163   0.1054   0.9263   1
1197.652   0.7017   0.1116   0.9258   1
1197.712   0.8579   0.1145   0.9254   1
1197.772   0.8863   0.1160   0.9249   1
1197.832   0.7635   0.1009   0.9245   1
1197.892   0.7692   0.1092   0.9240   1
1197.952   0.8609   0.1177   0.9235   1
1198.011   0.7735   0.1107   0.9231   1
1198.071   0.8473   0.1125   0.9226   1
1198.131   0.6776   0.0982   0.9221   1
1198.191   0.8532   0.1122   0.9216   1
1198.251   0.8578   0.1182   0.9211   1
1198.310   0.6837   0.0997   0.9206   1
1198.370   0.6820   0.1033   0.9201   1
1198.430   0.7226   0.1017   0.9196   1
1198.490   0.5930   0.0948   0.9191   1
1198.550   0.8287   0.1128   0.9186   1
1198.610   0.6896   0.1052   0.9181   1
1198.669   0.7163   0.1078   0.9176   1
1198.729   0.6418   0.0908   0.9170   0
1198.789   0.6616   0.0998   0.9165   0
1198.849   0.7325   0.1115   0.9160   0
1198.909   0.7220   0.0996   0.9154   0
1198.969   0.5960   0.0951   0.9149   0
1199.028   0.7786   0.0996   0.9143   0
1199.088   0.6336   0.0951   0.9138   0
1199.148   0.6505   0.1084   0.9132   0
1199.208   0.5340   0.0911   0.9126   0
1199.268   0.5897   0.0928   0.9121   0
1199.327   0.4366   0.0760   0.9115   0
1199.387   0.3582   0.0753   0.9109   0
1199.447   0.4212   0.0875   0.9103   0
1199.507   0.4060   0.0808   0.9097   0
1199.567   0.4319   0.0852   0.9091   0
1199.626   0.3052   0.0665   0.9085   0
1199.686   0.2895   0.0734   0.9079   0
1199.746   0.3344   0.0851   0.9073   0
1199.806   0.4788   0.0906   0.9066   0
1199.866   0.3327   0.0784   0.9060   0
1199.926   0.4578   0.0788   0.9054   0
1199.985   0.5502   0.0905   0.9047   0
1200.045   0.4701   0.0973   0.9041   0
1200.105   0.4744   0.0833   0.9034   0
1200.165   0.2298   0.0707   0.9027   0
1200.225   0.3930   0.0739   0.9021   0
1200.285   0.3108   0.0764   0.9014   0
1200.344   0.3571   0.0823   0.9007   0
1200.404   0.3222   0.0730   0.9000   0
1200.464   0.3447   0.0756   0.8993   0
1200.524   0.3130   0.0674   0.8986   0
1200.584   0.2749   0.0721   0.8979   0
1200.643   0.3875   0.0843   0.8972   0
1200.703   0.2871   0.0719   0.8964   0
1200.763   0.1764   0.0620   0.8957   0
1200.823   0.1836   0.0624   0.8949   0
1200.883   0.2193   0.0672   0.8942   0
1200.943   0.2990   0.0823   0.8934   0
1201.002   0.3556   0.0799   0.8927   0
1201.062   0.3324   0.0778   0.8919   0
1201.122   0.3518   0.0703   0.8911   0
1201.182   0.3051   0.0755   0.8903   0
1201.242   0.1815   0.0692   0.8895   0
1201.302   0.1407   0.0570   0.8887   0
1201.361   0.1793   0.0648   0.8879   0
1201.421   0.1383   0.0553   0.8870   0
1201.481   0.1403   0.0547   0.8862   0
1201.541   0.1334   0.0569   0.8853   0
1201.601   0.1274   0.0523   0.8845   0
1201.660   0.0237   0.0360   0.8836   0
1201.720   0.0701   0.0456   0.8827   0
1201.780   0.0477   0.0410   0.8818   0
1201.840   0.0846   0.0500   0.8809   0
1201.900   0.1371   0.0533   0.8800   0
1201.959   0.1167   0.0501   0.8791   0
1202.019   0.0686   0.0451   0.8782   0
1202.079   0.1058   0.0472   0.8772   0
1202.139   0.0487   0.0454   0.8763   0
1202.199   0.0933   0.0474   0.8753   0
1202.259   0.0909   0.0471   0.8744   0
1202.318   0.0662   0.0383   0.8734   0
1202.378   0.0297   0.0360   0.8724   0
1202.438   0.0716   0.0486   0.8714   0
1202.498   0.0348   0.0376   0.8704   0
1202.558   0.0263   0.0360   0.8693   0
1202.618   0.0747   0.0406   0.8683   0
1202.677   0.0835   0.0460   0.8672   0
1202.737   0.0788   0.0535   0.8662   0
1202.797   0.0302   0.0376   0.8651   0
1202.857   0.0649   0.0432   0.8640   0
1202.917   0.0936   0.0454   0.8629   0
1202.976   0.1323   0.0550   0.8618   0
1203.036   0.1151   0.0622   0.8607   0
1203.096   0.1747   0.0581   0.8595   0
1203.156   0.2838   0.0715   0.8584   0
1203.216   0.3176   0.0697   0.8572   0
1203.276   0.3808   0.0807   0.8560   0
1203.335   0.2534   0.0754   0.8548   0
1203.395   0.3454   0.0762   0.8536   0
1203.455   0.4328   0.0842   0.8524   0
1203.515   0.2945   0.0653   0.8511   0
1203.575   0.4409   0.0854   0.8498   0
1203.634   0.4572   0.0930   0.8486   0
1203.694   0.4334   0.0797   0.8473   0
1203.754   0.3431   0.0792   0.8460   0
1203.814   0.3341   0.0704   0.8446   0
1203.874   0.5044   0.0846   0.8433   0
1203.934   0.3596   0.0814   0.8419   0
1203.993   0.3946   0.0767   0.8406   0
1204.053   0.6079   0.0924   0.8392   0
1204.113   0.4466   0.0785   0.8378   0
1204.173   0.6082   0.0953   0.8363   0
1204.233   0.5044   0.0910   0.8349   0
1204.292   0.4646   0.0868   0.8334   0
1204.352   0.3996   0.0828   0.8319   0
1204.412   0.4726   0.0784   0.8304   0
1204.472   0.5010   0.0837   0.8289   0
1204.532   0.4457   0.0936   0.8274   0
1204.592   0.4465   0.0793   0.8258   0
1204.651   0.5254   0.0913   0.8242   0
1204.711   0.4909   0.0797   0.8226   0
1204.771   0.6583   0.0936   0.8210   0
1204.831   0.5026   0.0960   0.8193   0
1204.891   0.4503   0.0864   0.8177   0
1204.950   0.7377   0.1043   0.8160   0
1205.010   0.6094   0.0856   0.8142   0
1205.070   0.6152   0.0915   0.8125   0
1205.130   0.6151   0.1066   0.8107   0
1205.190   0.4818   0.0836   0.8089   0
1205.250   0.3698   0.0826   0.8071   0
1205.309   0.5933   0.0843   0.8053   0
1205.369   0.3270   0.0777   0.8034   0
1205.429   0.4777   0.0896   0.8015   0
1205.489   0.5362   0.0897   0.7996   0
1205.549   0.3527   0.0788   0.7977   0
1205.609   0.3416   0.0723   0.7957   0
1205.668   0.3715   0.0761   0.7937   0
1205.728   0.4142   0.0895   0.7917   0
1205.788   0.3999   0.0845   0.7896   0
1205.848   0.2929   0.0729   0.7875   0
1205.908   0.3972   0.0746   0.7854   0
1205.967   0.3684   0.0795   0.7833   0
1206.027   0.3965   0.0846   0.7811   0
1206.087   0.3022   0.0721   0.7789   0
1206.147   0.1217   0.0611   0.7767   0
1206.207   0.1607   0.0515   0.7744   0
1206.266   0.0921   0.0488   0.7721   0
1206.326   0.0867   0.0541   0.7698   0
1206.386   0.0331   0.0369   0.7674   0
1206.446   0.0197   0.0336   0.7650   0
1206.506   0.0060   0.0274   0.7625   0
1206.566   0.0223   0.0351   0.7600   0
1206.625   0.0202   0.0383   0.7575   0
1206.685   0.0553   0.0397   0.7550   0
1206.745   0.0388   0.0384   0.7524   0
1206.805   0.0104   0.0290   0.7497   0
1206.865   0.0437   0.0396   0.7471   0
1206.925   0.0651   0.0487   0.7444   0
1206.984   0.0780   0.0470   0.7416   0
1207.044   0.1561   0.0555   0.7388   0
1207.104   0.2222   0.0579   0.7360   0
1207.164   0.1742   0.0651   0.7331   0
1207.224   0.1764   0.0665   0.7301   0
1207.283   0.3833   0.0793   0.7272   0
1207.343   0.2340   0.0722   0.7241   0
1207.403   0.2708   0.0608   0.7211   0
1207.463   0.2985   0.0746   0.7180   0
1207.523   0.3011   0.0781   0.7148   0
1207.583   0.3285   0.0731   0.7116   0
1207.642   0.2101   0.0670   0.7083   0
1207.702   0.2241   0.0601   0.7050   0
1207.762   0.2300   0.0658   0.7016   0
1207.822   0.2354   0.0740   0.6982   0
1207.882   0.2206   0.0661   0.6947   0
1207.942   0.1212   0.0516   0.6912   0
1208.001   0.0565   0.0426   0.6876   0
1208.061   0.1193   0.0559   0.6839   0
1208.121   0.0856   0.0567   0.6802   0
1208.181   0.1591   0.0567   0.6764   0
1208.241   0.0269   0.0362   0.6726   0
1208.300   0.0422   0.0361   0.6687   0
1208.360   0.0195   0.0351   0.6647   0
1208.420   0.0222   0.0399   0.6607   0
1208.480   0.0238   0.0352   0.6566   0
1208.540   0.0160   0.0334   0.6524   0
1208.599   0.0201   0.0313   0.6482   0
1208.659   0.0107   0.0319   0.6439   0
1208.719   0.0435   0.0440   0.6395   0
1208.779   0.0104   0.0318   0.6351   0
1208.839   0.0382   0.0396   0.6305   0
1208.899   0.0437   0.0374   0.6259   0
1208.958   0.1047   0.0494   0.6213   0
1209.018   0.0836   0.0579   0.6165   0
1209.078   0.2224   0.0623   0.6117   0
1209.138   0.2664   0.0697   0.6068   0
1209.198   0.3050   0.0670   0.6017   0
1209.258   0.4688   0.0838   0.5967   0
1209.317   0.3561   0.0796   0.5915   0
1209.377   0.3629   0.0764   0.5862   0
1209.437   0.3213   0.0763   0.5809   0
1209.497   0.4663   0.0723   0.5754   0
1209.557   0.4714   0.0815   0.5699   0
1209.616   0.3864   0.0930   0.5643   0
1209.676   0.4688   0.0896   0.5586   0
1209.736   0.4289   0.0832   0.5527   0
1209.796   0.5844   0.0854   0.5468   0
1209.856   0.4804   0.0826   0.5408   0
1209.916   0.5328   0.0917   0.5347   0
1209.975   0.4139   0.0852   0.5285   0
1210.035   0.6186   0.0878   0.5221   0
1210.095   0.4162   0.0743   0.5157   0
1210.155   0.3879   0.0832   0.5092   0
1210.215   0.7175   0.1048   0.5025   0
1210.274   0.5339   0.0903   0.4958   0
1210.334   0.6523   0.0974   0.4889   1
1210.394   0.5639   0.0797   0.4819   1
1210.454   0.4560   0.0772   0.4748   1
1210.514   0.4891   0.0912   0.4676   1
1210.574   0.3577   0.0777   0.4603   1
1210.633   0.3947   0.0783   0.4528   1
1210.693   0.3645   0.0700   0.4453   1
1210.753   0.4165   0.0782   0.4376   1
1210.813   0.4940   0.0929   0.4298   1
1210.873   0.4272   0.0796   0.4219   1
1210.932   0.4388   0.0814   0.4139   1
1210.992   0.3515   0.0720   0.4057   1
1211.052   0.3940   0.0801   0.3975   1
1211.112   0.2271   0.0685   0.3891   1
1211.172   0.3446   0.0752   0.3806   1
1211.232   0.2563   0.0691   0.3720   1
1211.291   0.4930   0.0758   0.3632   1
1211.351   0.2811   0.0721   0.3544   1
1211.411   0.2794   0.0782   0.3454   1
1211.471   0.2218   0.0700   0.3364   1
1211.531   0.1583   0.0616   0.3272   1
1211.590   0.2979   0.0668   0.3179   1
1211.650   0.2076   0.0590   0.3086   1
1211.710   0.3329   0.0771   0.2991   1
1211.770   0.2882   0.0681   0.2896   1
1211.830   0.2089   0.0659   0.2799   1
1211.890   0.2408   0.0578   0.2702   1
1211.949   0.2804   0.0682   0.2605   1
1212.009   0.2890   0.0727   0.2507   1
1212.069   0.1401   0.0540   0.2408   1
1212.129   0.1490   0.0587   0.2309   1
1212.189   0.2301   0.0602   0.2209   1
1212.249   0.1730   0.0559   0.2110   1
1212.308   0.1953   0.0693   0.2010   1
1212.368   0.2089   0.0588   0.1911   1
1212.428   0.1627   0.0539   0.1812   1
1212.488   0.1260   0.0479   0.1713   1
1212.548   0.1048   0.0518   0.1615   1
1212.607   0.1242   0.0610   0.1517   1
1212.667   0.0758   0.0519   0.1421   1
1212.727   0.0629   0.0442   0.1326   1
1212.787   0.0824   0.0433   0.1233   1
1212.847   0.0425   0.0403   0.1141   1
1212.906   0.0642   0.0479   0.1051   1
1212.966   0.0921   0.0496   0.0963   1
1213.026   0.0702   0.0477   0.0878   1
1213.086   0.0337   0.0365   0.0795   1
1213.146   0.0592   0.0464   0.0716   1
1213.206   0.0647   0.0498   0.0640   1
1213.266   0.0673   0.0476   0.0568   1
1213.325   0.0614   0.0466   0.0499   1
1213.385   0.0755   0.0451   0.0435   1
1213.445   0.0324   0.0447   0.0375   1
1213.505   0.0668   0.0508   0.0319   1
1213.565   0.0355   0.0403   0.0269   1
1213.624   0.0438   0.0447   0.0223   1
1213.684   0.0456   0.0401   0.0182   1
1213.744   0.0345   0.0399   0.0146   1
1213.804   0.0112   0.0403   0.0114   1
1213.864   0.0288   0.0394   0.0088   1
1213.923   0.0441   0.0467   0.0066   1
1213.983   0.0727   0.0441   0.0048   1
1214.043   0.0440   0.0437   0.0033   1
1214.103   0.0533   0.0475   0.0022   1
1214.163   0.0333   0.0669   0.0014   0
1214.223   0.1200   0.0552   0.0008   0
1214.282   0.1568   0.0529   0.0004   0
1214.342   0.1234   0.0546   0.0001   0
1214.402   0.3133   0.0836   0.0000   0
1214.462   0.3141   0.0740   0.0000   0
1214.522   0.2541   0.0747   0.0000   0
1214.582   0.4902   0.0886   0.0000   0
1214.641   0.7888   0.1259   -0.0000   0
1214.701   1.5267   0.2300   -0.0000   0
1214.761   3.9365   0.3653   -0.0000   0
1214.821   12.6097   0.5738   -0.0000   0
1214.881   41.0714   0.7401   -0.0000   0
1214.940   84.6581   1.0447   -0.0000   0
1215.000   128.9589   1.3718   -0.0000   0
1215.060   183.5939   1.4722   -0.0000   0
1215.120   244.8091   1.6843   -0.0000   0
1215.180   314.7464   1.7298   -0.0000   0
1215.240   381.8751   2.0352   -0.0000   0
1215.299   437.6228   2.3602   -0.0000   0
1215.359   491.4409   2.2718   -0.0000   0
1215.419   540.4980   2.3827   -0.0000   0
1215.479   570.7126   2.2548   -0.0000   0
1215.539   583.9169   2.4561   -0.0000   0
1215.599   589.2814   2.7084   -0.0000   0
1215.658   583.2294   2.4560   -0.0000   0
1215.718   562.9210   2.4095   -0.0000   0
1215.778   513.4747   2.1326   -0.0000   0
1215.838   473.6333   2.2122   -0.0000   0
1215.898   431.6945   2.3146   0.0000   0
1215.957   378.8802   1.9843   -0.0000   0
1216.017   311.6251   1.8091   -0.0000   0
1216.077   244.4409   1.4978   -0.0000   0
1216.137   173.3575   1.3714   -0.0000   0
1216.197   124.5793   1.2878   -0.0000   0
1216.256   83.6952   0.9752   -0.0000   0
1216.316   42.4730   0.7543   -0.0000   0
1216.376   12.5035   0.4799   -0.0000   0
1216.436   2.7985   0.3230   -0.0000   0
1216.496   1.1522   0.2060   -0.0000   0
1216.556   0.5705   0.1189   -0.0000   0
1216.615   0.3993   0.0890   -0.0000   0
1216.675   0.3635   0.0754   -0.0000   0
1216.735   0.2188   0.0688   -0.0000   0
1216.795   0.2528   0.0779   -0.0000   0
1216.855   0.1379   0.0589   -0.0000   0
1216.915   0.1733   0.0600   -0.0000   0
1216.974   0.0740   0.0495   -0.0000   0
1217.034   0.0854   0.0489   -0.0000   0
1217.094   0.0506   0.0462   0.0000   0
1217.154   0.0558   0.0437   -0.0000   0
1217.214   0.0636   0.0445   -0.0000   0
1217.273   0.0696   0.0417   -0.0000   0
1217.333   0.0502   0.0443   -0.0000   0
1217.393   0.0540   0.0471   -0.0000   1
1217.453   0.0476   0.0430   -0.0000   1
1217.513   0.0104   0.0355   -0.0000   1
1217.573   0.0224   0.0360   -0.0000   1
1217.632   0.0478   0.0434   -0.0000   1
1217.692   0.0565   0.0435   -0.0000   1
1217.752   0.0105   0.0325   -0.0000   1
1217.812   0.0103   0.0357   -0.0000   1
1217.872   0.0339   0.0348   -0.0000   1
1217.931   0.0060   0.0360   -0.0000   1
1217.991   0.0269   0.0437   -0.0000   1
1218.051   0.0191   0.0354   0.0000   1
1218.111   -0.0034   0.0284   -0.0000   1
1218.171   0.0245   0.0333   0.0000   1
1218.231   0.0097   0.0320   -0.0000   1
1218.290   0.0357   0.0421   0.0000   1
1218.350   -0.0017   0.0283   0.0000   1
1218.410   0.0045   0.0303   0.0000   1
1218.470   0.0145   0.0322   0.0000   1
1218.530   0.0178   0.0302   0.0000   1
1218.589   0.0187   0.0374   0.0000   1
1218.649   0.0130   0.0326   0.0000   1
1218.709   0.0112   0.0316   0.0000   1
1218.769   0.0046   0.0270   0.0000   1
1218.829   0.0175   0.0329   0.0000   1
1218.889   0.0225   0.0389   0.0000   1
1218.948   0.0151   0.0319   0.0000   1
1219.008   0.0125   0.0316   0.0001   1
1219.068   0.0341   0.0332   0.0001   1
1219.128   0.0393   0.0349   0.0002   1
1219.188   0.0063   0.0320   0.0004   1
1219.247   -0.0029   0.0267   0.0007   1
1219.307   0.0002   0.0284   0.0011   1
1219.367   0.0275   0.0324   0.0017   1
1219.427   0.0749   0.0423   0.0025   1
1219.487   0.0470   0.0417   0.0036   1
1219.547   0.0625   0.0401   0.0049   1
1219.606   0.0436   0.0390   0.0066   1
1219.666   0.0550   0.0365   0.0086   1
1219.726   0.0377   0.0364   0.0111   1
1219.786   0.0487   0.0435   0.0139   1
1219.846   0.0447   0.0404   0.0172   1
1219.906   0.0319   0.0347   0.0209   1
1219.965   0.0839   0.0444   0.0250   1
1220.025   0.0574   0.0400   0.0296   1
1220.085   0.1119   0.0551   0.0346   1
1220.145   0.1232   0.0510   0.0401   1
1220.205   0.0999   0.0478   0.0460   1
1220.264   0.0771   0.0435   0.0522   1
1220.324   0.1007   0.0469   0.0589   1
1220.384   0.1890   0.0632   0.0659   1
1220.444   0.0991   0.0488   0.0732   1
1220.504   0.1789   0.0554   0.0809   1
1220.563   0.1328   0.0476   0.0888   1
1220.623   0.2138   0.0606   0.0970   1
1220.683   0.0937   0.0547   0.1055   1
1220.743   0.1466   0.0566   0.1142   1
1220.803   0.1971   0.0606   0.1230   1
1220.863   0.2020   0.0527   0.1321   1
1220.922   0.2998   0.0653   0.1413   1
1220.982   0.2641   0.0708   0.1506   1
1221.042   0.2683   0.0669   0.1600   1
1221.102   0.2405   0.0597   0.1695   1
1221.162   0.2405   0.0573   0.1791   1
1221.222   0.2374   0.0653   0.1888   1
1221.281   0.2941   0.0707   0.1985   1
1221.341   0.3017   0.0681   0.2082   1
1221.401   0.2508   0.0630   0.2179   1
1221.461   0.2377   0.0627   0.2276   1
1221.521   0.4438   0.0784   0.2373   1
1221.580   0.3592   0.0780   0.2470   1
1221.640   0.3005   0.0728   0.2566   1
1221.700   0.3227   0.0737   0.2662   1
1221.760   0.4206   0.0687   0.2757   1
1221.820   0.2795   0.0694   0.2852   1
1221.880   0.4587   0.0947   0.2946   1
1221.939   0.2413   0.0688   0.3039   1
1221.999   0.3565   0.0816   0.3132   1
1222.059   0.3785   0.0757   0.3223   1
1222.119   0.2954   0.0673   0.3314   1
1222.179   0.4320   0.0875   0.3404   1
1222.239   0.3668   0.0742   0.3492   1
1222.298   0.2978   0.0716   0.3580   1
1222.358   0.3268   0.0631   0.3667   1
1222.418   0.4873   0.0865   0.3753   1
1222.478   0.3533   0.0797   0.3837   1
1222.538   0.4789   0.0811   0.3921   1
1222.597   0.5071   0.0841   0.4003   1
1222.657   0.4075   0.0705   0.4084   1
1222.717   0.3292   0.0759   0.4164   1
1222.777   0.5168   0.0928   0.4243   1
1222.837   0.3626   0.0797   0.4321   1
1222.896   0.5432   0.0827   0.4398   1
1222.956   0.4117   0.0688   0.4473   1
1223.016   0.3410   0.0766   0.4548   1
1223.076   0.5300   0.0955   0.4621   1
1223.136   0.4291   0.0801   0.4693   1
1223.196   0.5247   0.0889   0.4765   1
1223.255   0.3969   0.0714   0.4835   1
1223.315   0.5735   0.0882   0.4903   1
1223.375   0.5035   0.0870   0.4971   1
1223.435   0.5806   0.0831   0.5038   1
1223.495   0.5813   0.0914   0.5104   1
1223.555   0.4687   0.0750   0.5169   1
1223.614   0.4636   0.0848   0.5232   1
1223.674   0.4650   0.0845   0.5295   1
1223.734   0.6039   0.0866   0.5356   1
1223.794   0.5733   0.0849   0.5417   1
1223.854   0.5472   0.0824   0.5476   1
1223.913   0.6505   0.0876   0.5535   1
1223.973   0.5158   0.0897   0.5593   1
1224.033   0.6993   0.0932   0.5649   1
1224.093   0.4814   0.0793   0.5705   1
1224.153   0.5328   0.0774   0.5760   1
1224.213   0.4610   0.0844   0.5814   1
1224.272   0.5337   0.0953   0.5867   1
1224.332   0.5726   0.0836   0.5919   1
1224.392   0.6371   0.0908   0.5971   1
1224.452   0.7658   0.0876   0.6021   1
1224.512   0.5237   0.0862   0.6071   1
1224.571   0.6273   0.0993   0.6120   1
1224.631   0.4801   0.0856   0.6168   1
1224.691   0.5912   0.0862   0.6215   1
1224.751   0.4680   0.0789   0.6261   1
1224.811   0.6613   0.0921   0.6307   1
1224.871   0.7031   0.1020   0.6352   1
1224.930   0.6104   0.0910   0.6396   1
1224.990   0.7645   0.1010   0.6440   1
1225.050   0.8092   0.0893   0.6483   1
1225.110   0.7157   0.0914   0.6525   1
1225.170   0.5494   0.0911   0.6566   1
1225.229   0.8151   0.0984   0.6607   1
1225.289   0.9009   0.1018   0.6647   1
1225.349   0.7426   0.0884   0.6687   1
1225.409   0.7462   0.0983   0.6726   1
1225.469   0.6473   0.1082   0.6764   1
1225.529   0.6983   0.0988   0.6801   1
1225.588   0.8332   0.0997   0.6838   1
1225.648   0.7194   0.0851   0.6875   1
1225.708   0.6731   0.0972   0.6911   1
1225.768   0.8379   0.1094   0.6946   1
1225.828   0.5638   0.0916   0.6981   1
1225.887   0.7226   0.0937   0.7015   1
1225.947   0.7793   0.0936   0.7048   1
1226.007   0.7405   0.0997   0.7082   1
1226.067   0.8556   0.1140   0.7114   1
1226.127   0.9293   0.1065   0.7146   1
1226.187   0.8970   0.1049   0.7178   1
1226.246   0.7952   0.0923   0.7209   1
1226.306   0.7010   0.0956   0.7240   1
1226.366   0.8295   0.1125   0.7270   1
1226.426   0.6521   0.0953   0.7299   1
1226.486   0.6771   0.0920   0.7329   1
1226.546   0.8808   0.0960   0.7358   0
1226.605   0.8776   0.1013   0.7386   0
1226.665   0.6764   0.1015   0.7414   0
1226.725   0.8733   0.1018   0.7441   0
1226.785   0.6950   0.0941   0.7468   0
1226.845   0.8922   0.0953   0.7495   0
1226.904   1.0768   0.1090   0.7521   0
1226.964   0.9615   0.1143   0.7547   0
1227.024   1.0228   0.1056   0.7573   0
1227.084   0.7895   0.1008   0.7598   0
1227.144   0.6706   0.0880   0.7623   0
1227.203   0.8014   0.0963   0.7647   0
1227.263   0.6489   0.1108   0.7671   0
1227.323   0.8476   0.1030   0.7695   0
1227.383   0.6671   0.0903   0.7718   0
1227.443   0.8084   0.0935   0.7741   0
1227.503   0.6695   0.0939   0.7764   0
1227.562   0.6596   0.1000   0.7787   0
1227.622   0.7619   0.0923   0.7809   0
1227.682   0.8227   0.0973   0.7830   0
1227.742   0.6704   0.0833   0.7852   0
1227.802   0.6282   0.0917   0.7873   0
1227.862   0.6524   0.1012   0.7894   0
1227.921   0.5710   0.0891   0.7914   0
1227.981   0.7784   0.0971   0.7935   0
1228.041   0.8151   0.0907   0.7954   0
1228.101   0.7240   0.0937   0.7974   0
1228.161   0.5722   0.0921   0.7994   0
1228.220   0.8118   0.0976   0.8013   0
1228.280   0.7379   0.0952   0.8032   0
1228.340   0.7538   0.0885   0.8050   0
1228.400   0.6451   0.0880   0.8069   0
1228.460   0.8434   0.1100   0.8087   0
1228.520   0.8820   0.0994   0.8105   0
1228.579   0.7538   0.0998   0.8122   0
1228.639   0.5948   0.0835   0.8140   0
1228.699   1.0027   0.1033   0.8157   0
1228.759   0.8622   0.1108   0.8174   0
1228.819   0.6812   0.0963   0.8191   0
1228.879   0.8450   0.1007   0.8207   0
1228.938   0.7507   0.0883   0.8223   0
1228.998   0.7750   0.0951   0.8240   0
1229.058   0.8018   0.1055   0.8255   0
1229.118   0.7265   0.0915   0.8271   0
1229.178   0.8140   0.0960   0.8287   0
1229.237   0.7686   0.0894   0.8302   0
1229.297   0.6099   0.0852   0.8317   0
1229.357   0.5650   0.1009   0.8332   0
1229.417   0.6249   0.0921   0.8346   0
1229.477   0.5679   0.0862   0.8361   0
1229.536   0.5409   0.0837   0.8375   0
1229.596   0.7166   0.0933   0.8389   0
1229.656   0.6259   0.0987   0.8403   0
1229.716   0.7928   0.0958   0.8417   0
1229.776   0.8003   0.0962   0.8431   0
1229.836   0.6632   0.0865   0.8444   0
1229.895   0.6594   0.0944   0.8457   0
1229.955   0.8209   0.1099   0.8470   0
1230.015   0.7234   0.0954   0.8483   0
1230.075   0.6118   0.0937   0.8496   0
1230.135   0.7005   0.0907   0.8509   0
1230.195   0.5905   0.0881   0.8521   0
1230.254   0.6355   0.0965   0.8534   0
1230.314   0.6968   0.0942   0.8546   0
1230.374   0.6114   0.0867   0.8558   0
1230.434   0.4608   0.0749   0.8570   0
1230.494   0.6378   0.0891   0.8581   0
1230.553   0.5542   0.0943   0.8593   0
1230.613   0.5381   0.0825   0.8604   0
1230.673   0.7399   0.0921   0.8616   0
1230.733   0.6789   0.0852   0.8627   0
1230.793   0.6309   0.0869   0.8638   0
1230.853   0.5658   0.0943   0.8649   0
1230.912   0.5847   0.0837   0.8660   0
1230.972   0.7358   0.0920   0.8670   0
1231.032   0.5740   0.0817   0.8681   0
1231.092   0.5906   0.0830   0.8691   0
1231.152   0.6967   0.1003   0.8702   0
1231.211   0.5502   0.0836   0.8712   0
1231.271   0.6076   0.0863   0.8722   0
1231.331   0.5758   0.0775   0.8732   0
1231.391   0.4512   0.0791   0.8742   0
1231.451   0.5511   0.0897   0.8751   0
1231.511   0.6284   0.0872   0.8761   0
1231.570   0.5084   0.0796   0.8771   0
1231.630   0.6015   0.0817   0.8780   0
1231.690   0.5087   0.0834   0.8789   0
1231.750   0.5227   0.0913   0.8798   0
1231.810   0.5184   0.0840   0.8807   0
1231.870   0.4524   0.0754   0.8816   0
1231.929   0.5610   0.0765   0.8825   0
1231.989   0.3247   0.0754   0.8834   0
1232.049   0.4778   0.0898   0.8843   0
1232.109   0.3620   0.0742   0.8851   0
1232.169   0.3781   0.0708   0.8860   0
1232.228   0.4447   0.0709   0.8868   0
1232.288   0.4039   0.0777   0.8877   0
1232.348   0.4038   0.0869   0.8885   0
1232.408   0.3767   0.0750   0.8893   0
1232.468   0.5326   0.0794   0.8901   0
1232.527   0.4921   0.0725   0.8909   0
1232.587   0.4107   0.0789   0.8917   0
1232.647   0.5066   0.0866   0.8925   0
1232.707   0.5334   0.0856   0.8933   0
1232.767   0.5681   0.0871   0.8940   0
1232.827   0.5421   0.0768   0.8948   0
1232.886   0.5918   0.0854   0.8955   0
1232.946   0.4984   0.0864   0.8963   0
1233.006   0.6609   0.0964   0.8970   0
1233.066   0.7262   0.0925   0.8977   0
1233.126   0.5300   0.0792   0.8984   0
1233.186   0.7801   0.0940   0.8991   0
1233.245   0.5739   0.0959   0.8998   0
1233.305   0.6638   0.0885   0.9005   0
1233.365   0.5771   0.0884   0.9012   0
1233.425   0.5804   0.0793   0.9019   0
1233.485   0.7350   0.0949   0.9026   0
1233.544   0.6862   0.0984   0.9033   0
1233.604   0.8034   0.0964   0.9039   0
1233.664   0.4866   0.0797   0.9046   0
1233.724   0.5437   0.0745   0.9052   0
1233.784   0.8508   0.1035   0.9059   0
1233.844   0.7464   0.1011   0.9065   0
1233.903   0.6619   0.0880   0.9071   0
1233.963   0.5723   0.0831   0.9077   0
1234.023   0.6307   0.0833   0.9084   0
1234.083   0.5595   0.0836   0.9090   0
1234.143   0.4572   0.0923   0.9096   0
1234.203   0.6863   0.0898   0.9102   0
1234.262   0.6408   0.0924   0.9108   0
1234.322   0.6230   0.0857   0.9114   0
1234.382   0.5693   0.0842   0.9119   0
1234.442   0.5185   0.0933   0.9125   0
1234.502   0.5197   0.0899   0.9131   0
1234.561   0.6526   0.0898   0.9136   0
1234.621   0.4490   0.0717   0.9142   0
1234.681   0.5531   0.0846   0.9148   0
1234.741   0.5697   0.0961   0.9153   0
1234.801   0.5776   0.0836   0.9158   0
1234.860   0.3909   0.0737   0.9164   0
1234.920   0.5009   0.0769   0.9169   0
1234.980   0.5899   0.0872   0.9174   0
1235.040   0.6954   0.1033   0.9180   0
1235.100   0.6443   0.0933   0.9185   0
1235.160   0.4430   0.0760   0.9190   0
1235.219   0.5074   0.0760   0.9195   0
1235.279   0.5913   0.0845   0.9200   0
1235.339   0.5038   0.0949   0.9205   0
1235.399   0.5236   0.0851   0.9210   0
1235.459   0.4772   0.0790   0.9215   0
1235.519   0.7283   0.0836   0.9220   0
1235.578   0.5598   0.0817   0.9225   0
1235.638   0.4757   0.0913   0.9229   0
1235.698   0.5886   0.0832   0.9234   0
1235.758   0.5470   0.0843   0.9239   0
1235.818   0.5392   0.0773   0.9243   0
1235.877   0.5442   0.0827   0.9248   0
1235.937   0.5558   0.0890   0.9253   0
1235.997   0.4918   0.0817   0.9257   0
1236.057   0.4650   0.0789   0.9262   0
1236.117   0.3824   0.0665   0.9266   0
1236.177   0.5065   0.0817   0.9270   0
1236.236   0.4015   0.0788   0.9275   0
1236.296   0.4135   0.0789   0.9279   0
1236.356   0.5024   0.0781   0.9283   0
1236.416   0.4695   0.0731   0.9288   0
1236.476   0.4246   0.0759   0.9292   0
1236.535   0.4859   0.0895   0.9296   0
1236.595   0.3409   0.0775   0.9300   0
1236.655   0.4311   0.0751   0.9304   0
1236.715   0.5631   0.0756   0.9308   0
1236.775   0.5128   0.0781   0.9312   0
1236.835   0.3975   0.0872   0.9316   0
1236.894   0.5589   0.0842   0.9320   0
1236.954   0.4343   0.0763   0.9324   0
1237.014   0.5273   0.0753   0.9328   0
1237.074   0.4315   0.0769   0.9332   0
1237.134   0.4741   0.0826   0.9336   0
1237.193   0.5914   0.0837   0.9340   0
1237.253   0.3556   0.0721   0.9343   0
1237.313   0.4368   0.0744   0.9347   0
1237.373   0.6604   0.0867   0.9351   0
1237.433   0.4243   0.0866   0.9354   0
1237.493   0.5802   0.0876   0.9358   0
1237.552   0.4449   0.0790   0.9362   0
1237.612   0.4476   0.0734   0.9365   0
1237.672   0.4372   0.0791   0.9369   0
1237.732   0.4476   0.0907   0.9372   0
1237.792   0.4439   0.0744   0.9376   0
1237.851   0.2769   0.0662   0.9379   0
1237.911   0.4234   0.0710   0.9383   0
1237.971   0.5758   0.0829   0.9386   0
1238.031   0.4534   0.0841   0.9389   0
1238.091   0.4096   0.0737   0.9393   0
1238.151   0.3914   0.0768   0.9396   0
1238.210   0.5141   0.0758   0.9399   0
1238.270   0.5012   0.0801   0.9403   0
1238.330   0.4416   0.0825   0.9406   0
1238.390   0.3172   0.0723   0.9409   0
1238.450   0.3100   0.0700   0.9412   0
1238.510   0.5038   0.0715   0.9415   0
1238.569   0.5339   0.0803   0.9419   0
1238.629   0.4028   0.0777   0.9422   0
1238.689   0.4386   0.0750   0.9425   0
1238.749   0.4299   0.0798   0.9428   0
1238.809   0.4644   0.0731   0.9431   0
1238.868   0.3310   0.0705   0.9434   0
1238.928   0.4539   0.0860   0.9437   0
1238.988   0.5258   0.0811   0.9440   0
1239.048   0.4592   0.0760   0.9443   0
1239.108   0.4944   0.0744   0.9446   0
1239.167   0.5938   0.0837   0.9449   0
1239.227   0.6516   0.0953   0.9451   0
1239.287   0.6372   0.0873   0.9454   0
1239.347   0.5636   0.0811   0.9457   0
1239.407   0.6620   0.0835   0.9460   0
1239.467   0.5653   0.0862   0.9463   0
1239.526   0.5796   0.0889   0.9465   0
1239.586   0.4171   0.0776   0.9468   0
1239.646   0.6343   0.0868   0.9471   0
1239.706   0.5269   0.0761   0.9474   0
1239.766   0.6369   0.0826   0.9476   0
1239.826   0.4932   0.0860   0.9479   0
1239.885   0.5493   0.0836   0.9482   0
1239.945   0.4789   0.0770   0.9484   0
1240.005   0.5972   0.0769   0.9487   0
1240.065   0.5526   0.0820   0.9489   0
1240.125   0.6079   0.0952   0.9492   0
1240.184   0.5867   0.0852   0.9495   0
1240.244   0.5212   0.0809   0.9497   0
1240.304   0.5947   0.0794   0.9500   0
1240.364   0.5884   0.0825   0.9502   0
1240.424   0.4359   0.0896   0.9505   0
1240.484   0.5082   0.0786   0.9507   0
1240.543   0.3165   0.0692   0.9509   0
1240.603   0.3715   0.0689   0.9512   0
1240.663   0.3502   0.0734   0.9514   0
1240.723   0.5821   0.0895   0.9517   0
1240.783   0.3902   0.0731   0.9519   0
1240.843   0.4726   0.0780   0.9521   0
1240.902   0.5834   0.0802   0.9524   0
1240.962   0.4681   0.0760   0.9526   0
1241.022   0.5345   0.0894   0.9528   0
1241.082   0.4838   0.0757   0.9531   0
1241.142   0.6360   0.0881   0.9533   0
1241.201   0.6201   0.0767   0.9535   0
1241.261   0.6240   0.0880   0.9537   0
1241.321   0.4613   0.0906   0.9540   0
1241.381   0.7176   0.0914   0.9542   0
1241.441   0.8376   0.0942   0.9544   0
1241.500   0.6409   0.0865   0.9546   0
1241.560   0.8145   0.0979   0.9548   0
1241.620   0.7353   0.1006   0.9550   0
1241.680   0.8206   0.1017   0.9552   0
1241.740   0.8495   0.0965   0.9555   0
1241.800   0.7410   0.0916   0.9557   0
1241.859   0.6922   0.0904   0.9559   0
1241.919   0.7166   0.0999   0.9561   0
1241.979   0.8983   0.0987   0.9563   0
1242.039   0.6668   0.0967   0.9565   0
1242.099   0.6352   0.0830   0.9567   0
1242.159   0.8089   0.0936   0.9569   0
1242.218   0.7963   0.1036   0.9571   0
1242.278   0.7542   0.0927   0.9573   0
1242.338   0.6753   0.0898   0.9575   0
1242.398   0.8170   0.0864   0.9577   0
1242.458   0.6474   0.0898   0.9579   0
1242.517   0.7623   0.1042   0.9581   0
1242.577   0.7807   0.0932   0.9583   0
1242.637   0.7782   0.0954   0.9585   0
1242.697   0.7171   0.0841   0.9586   0
1242.757   0.6856   0.0887   0.9588   0
1242.817   0.7536   0.1023   0.9590   0
1242.876   0.7850   0.0979   0.9592   0
1242.936   0.9694   0.1025   0.9594   0
1242.996   0.7354   0.0870   0.9596   0
1243.056   0.6356   0.0911   0.9597   0
1243.116   0.6541   0.1071   0.9599   0
1243.175   0.7859   0.0961   0.9601   0
1243.235   0.9419   0.0998   0.9603   0
1243.295   0.8219   0.0919   0.9605   0
1243.355   0.9240   0.1018   0.9606   0
1243.415   0.7481   0.1014   0.9608   0
1243.475   0.8895   0.1023   0.9610   0
1243.534   0.9061   0.0997   0.9612   0
1243.594   0.8828   0.0923   0.9613   0
1243.654   1.0678   0.1060   0.9615   0
1243.714   0.8555   0.1155   0.9617   0
1243.774   1.0698   0.1071   0.9618   0
1243.833   1.1418   0.1082   0.9620   0
1243.893   0.9530   0.0976   0.9622   0
1243.953   1.0469   0.1086   0.9623   0
1244.013   1.0767   0.1180   0.9625   0
1244.073   0.9725   0.1043   0.9627   0
1244.133   1.0877   0.1117   0.9628   0
1244.192   1.1920   0.1035   0.9630   0
1244.252   1.0672   0.1091   0.9631   0
1244.312   0.9657   0.1135   0.9633   0
1244.372   1.0441   0.1074   0.9634   0
1244.432   0.9270   0.1021   0.9636   0
1244.491   0.9252   0.0981   0.9638   0
1244.551   1.1062   0.1094   0.9639   0
1244.611   0.7856   0.1006   0.9641   0
1244.671   0.9929   0.1020   0.9642   0
1244.731   1.0102   0.1097   0.9644   0
1244.791   0.7825   0.0898   0.9645   0
1244.850   0.8796   0.0981   0.9647   0
1244.910   0.8840   0.1122   0.9648   0
1244.970   1.0881   0.1089   0.9650   0
1245.030   0.9091   0.1011   0.9651   0
1245.090   1.0343   0.0984   0.9653   0
1245.150   0.9811   0.1041   0.9654   0
1245.209   1.1367   0.1192   0.9655   0
1245.269   1.2210   0.1140   0.9657   0
1245.329   1.0466   0.1105   0.9658   0
1245.389   1.3712   0.1125   0.9660   0
1245.449   1.1916   0.1112   0.9661   0
1245.508   1.2341   0.1257   0.9662   0
1245.568   1.2151   0.1175   0.9664   0
1245.628   1.3249   0.1164   0.9665   0
1245.688   1.5287   0.1151   0.9667   0
1245.748   1.3447   0.1200   0.9668   0
1245.807   1.2763   0.1333   0.9669   0
1245.867   1.3876   0.1204   0.9671   0
1245.927   1.4985   0.1253   0.9672   0
1245.987   1.3672   0.1097   0.9673   0
1246.047   1.2244   0.1167   0.9675   0
1246.107   1.1695   0.1230   0.9676   0
1246.167   1.2542   0.1167   0.9677   0
1246.226   1.2961   0.1181   0.9679   0
1246.286   1.2910   0.1052   0.9680   0
1246.346   1.3990   0.1217   0.9681   0
1246.406   1.2529   0.1259   0.9682   0
1246.466   1.3654   0.1184   0.9684   0
1246.525   1.2641   0.1158   0.9685   0
1246.585   1.2102   0.1075   0.9686   0
1246.645   1.4706   0.1224   0.9687   0
1246.705   1.2668   0.1279   0.9689   0
1246.765   1.2591   0.1157   0.9690   0
1246.824   1.2637   0.1177   0.9691   0
1246.884   1.1733   0.1037   0.9692   0
1246.944   1.0407   0.1056   0.9693   0
1247.004   1.3579   0.1296   0.9695   0
1247.064   1.5664   0.1252   0.9696   0
1247.124   0.9169   0.1056   0.9697   0
1247.183   1.0592   0.1009   0.9698   0
1247.243   1.3073   0.1184   0.9699   0
1247.303   1.1797   0.1223   0.9701   0
1247.363   1.0344   0.1085   0.9702   0
1247.423   1.1397   0.1131   0.9703   0
1247.483   1.0585   0.0995   0.9704   0
1247.542   1.1738   0.1157   0.9705   0
1247.602   1.0965   0.1207   0.9706   0
1247.662   1.1713   0.1153   0.9707   0
1247.722   0.8637   0.1009   0.9709   0
1247.782   0.8568   0.0952   0.9710   0
1247.841   1.1121   0.1095   0.9711   0
1247.901   0.8798   0.1077   0.9712   0
1247.961   0.9933   0.1071   0.9713   0
1248.021   1.0732   0.1071   0.9714   0
1248.081   1.0985   0.0987   0.9715   0
1248.141   1.0366   0.1099   0.9716   0
1248.200   0.8838   0.1104   0.9717   0
1248.260   0.9413   0.1038   0.9718   0
1248.320   1.1641   0.1098   0.9719   0
1248.380   0.9153   0.0935   0.9720   0
1248.440   1.0558   0.1050   0.9721   0
1248.499   1.0311   0.1143   0.9723   0
1248.559   0.7987   0.0952   0.9724   0
1248.619   0.9138   0.0996   0.9725   0
1248.679   0.8906   0.0914   0.9726   0
1248.739   0.7746   0.0915   0.9727   0
1248.799   0.8856   0.1070   0.9728   0
1248.858   0.6296   0.0859   0.9729   0
1248.918   0.7023   0.0918   0.9730   0
1248.978   0.6947   0.0858   0.9731   0
1249.038   0.7271   0.0918   0.9732   0
1249.098   0.6516   0.0954   0.9733   0
1249.157   0.8294   0.0946   0.9734   0
1249.217   0.4591   0.0784   0.9735   0
1249.277   0.5714   0.0789   0.9736   0
1249.337   0.5624   0.0874   0.9736   0
1249.397   0.5660   0.0934   0.9737   0
1249.457   0.5191   0.0852   0.9738   0
1249.516   0.5682   0.0842   0.9739   0
1249.576   0.4844   0.0731   0.9740   0
1249.636   0.4538   0.0761   0.9741   0
1249.696   0.3782   0.0807   0.9742   0
1249.756   0.5806   0.0831   0.9743   0
1249.815   0.4247   0.0755   0.9744   0
1249.875   0.5124   0.0762   0.9745   0
1249.935   0.6306   0.0891   0.9746   0
1249.995   0.5686   0.0932   0.9747   0
1250.055   0.8122   0.0941   0.9748   0
1250.115   0.6566   0.0860   0.9749   0
1250.174   0.6232   0.0806   0.9749   0
1250.234   0.6113   0.0880   0.9750   0
1250.294   0.7361   0.1014   0.9751   0
1250.354   0.7646   0.0949   0.9752   0
1250.414   0.6877   0.0884   0.9753   0
1250.474   0.7956   0.0872   0.9754   0
1250.533   0.7711   0.0953   0.9755   0
1250.593   0.8830   0.1061   0.9756   0
1250.653   0.7152   0.0902   0.9756   0
1250.713   0.6931   0.0913   0.9757   0
1250.773   0.8879   0.0934   0.9758   0
1250.832   0.7952   0.0972   0.9759   0
1250.892   0.6328   0.0995   0.9760   0
1250.952   1.0040   0.1051   0.9761   0
1251.012   0.7529   0.0983   0.9761   0
1251.072   0.9065   0.0935   0.9762   0
1251.131   1.0462   0.1044   0.9763   0
1251.191   1.0983   0.1186   0.9764   0
1251.251   1.0885   0.1070   0.9765   0
1251.311   1.1438   0.1075   0.9766   0
1251.371   0.8414   0.0909   0.9766   0
1251.431   0.9744   0.1026   0.9767   0
1251.490   1.1662   0.1255   0.9768   0
1251.550   0.9429   0.1045   0.9769   0
1251.610   0.8359   0.0999   0.9770   0
1251.670   0.8218   0.0890   0.9770   0
1251.730   0.7184   0.0953   0.9771   0
1251.790   0.7565   0.1099   0.9772   0
1251.849   0.8622   0.0992   0.9773   0
1251.909   0.7578   0.0988   0.9773   0
1251.969   0.9046   0.0957   0.9774   0
1252.029   1.0487   0.1062   0.9775   0
1252.089   0.8584   0.1077   0.9776   0
1252.148   0.9216   0.1010   0.9776   0
1252.208   0.8943   0.0993   0.9777   0
1252.268   0.8440   0.0912   0.9778   0
1252.328   0.5353   0.0811   0.9779   0
1252.388   0.6841   0.1036   0.9779   0
1252.448   0.6094   0.0912   0.9780   0
1252.507   0.5740   0.0871   0.9781   0
1252.567   0.5951   0.0785   0.9782   0
1252.627   0.5738   0.0827   0.9782   0
1252.687   0.3615   0.0780   0.9783   0
1252.747   0.5720   0.0812   0.9784   0
1252.807   0.3803   0.0694   0.9784   0
1252.866   0.4840   0.0731   0.9785   0
1252.926   0.7667   0.0910   0.9786   0
1252.986   0.5853   0.0917   0.9787   0
1253.046   0.7896   0.0947   0.9787   0
1253.106   0.8292   0.0970   0.9788   0
1253.165   0.8801   0.0903   0.9789   0
1253.225   0.7900   0.0974   0.9789   0
1253.285   1.0049   0.1157   0.9790   0
1253.345   0.9076   0.0978   0.9791   0
1253.405   0.8339   0.0964   0.9791   0
1253.464   0.7949   0.0903   0.9792   0
1253.524   0.8841   0.0957   0.9793   0
1253.584   0.6149   0.0963   0.9793   0
1253.644   0.7267   0.0911   0.9794   0
1253.704   0.4753   0.0797   0.9795   0
1253.764   0.7183   0.0843   0.9795   0
1253.823   0.5395   0.0828   0.9796   0
1253.883   0.4532   0.0818   0.9797   0
1253.943   0.6694   0.0867   0.9797   0
1254.003   0.6866   0.0915   0.9798   0
1254.063   0.6513   0.0800   0.9799   0
1254.123   0.7080   0.0919   0.9799   0
1254.182   0.7920   0.0999   0.9800   0
1254.242   0.7787   0.0919   0.9801   0
1254.302   0.8796   0.1010   0.9801   0
1254.362   0.9312   0.0926   0.9802   0
1254.422   0.9011   0.0981   0.9802   0
1254.481   0.7438   0.0981   0.9803   0
1254.541   0.9742   0.0995   0.9804   0
1254.601   1.0163   0.1066   0.9804   0
1254.661   1.0145   0.0962   0.9805   0
1254.721   1.0541   0.1049   0.9806   0
1254.781   0.9928   0.1153   0.9806   0
1254.840   0.8957   0.0982   0.9807   0
1254.900   0.8018   0.0929   0.9807   0
1254.960   0.8828   0.0919   0.9808   0
1255.020   0.8884   0.1012   0.9809   0
1255.080   0.7994   0.1006   0.9809   0
1255.140   0.9002   0.1009   0.9810   0
1255.199   0.7245   0.0960   0.9810   0
1255.259   0.8912   0.0908   0.9811   0
1255.319   0.9117   0.0997   0.9811   0
1255.379   0.8620   0.1066   0.9812   0
1255.439   0.8241   0.0951   0.9813   0
1255.498   0.8148   0.0967   0.9813   0
1255.558   0.7999   0.0846   0.9814   0
1255.618   0.5972   0.0841   0.9814   0
1255.678   0.7514   0.1042   0.9815   0
1255.738   0.5909   0.0828   0.9815   0
1255.797   0.2619   0.0636   0.9816   0
1255.857   0.4607   0.0705   0.9817   0
1255.917   0.3988   0.0700   0.9817   0
1255.977   0.3565   0.0789   0.9818   0
1256.037   0.2315   0.0604   0.9818   0
1256.097   0.4389   0.0742   0.9819   0
1256.156   0.3897   0.0672   0.9819   0
1256.216   0.6343   0.0848   0.9820   0
1256.276   0.5228   0.0847   0.9820   0
1256.336   0.6919   0.0898   0.9821   0
1256.396   0.7616   0.0897   0.9822   0
1256.456   0.7923   0.0871   0.9822   0
1256.515   0.8740   0.0960   0.9823   0
1256.575   0.7012   0.1011   0.9823   0
1256.635   0.8120   0.0956   0.9824   0
1256.695   0.6725   0.0907   0.9824   0
1256.755   0.8376   0.0888   0.9825   0
1256.814   0.8717   0.0957   0.9825   1
1256.874   0.7806   0.1041   0.9826   1
1256.934   1.0038   0.1025   0.9826   1
1256.994   0.8703   0.1011   0.9827   1
1257.054   1.0183   0.0956   0.9827   1
1257.114   0.9021   0.0991   0.9828   1
1257.173   0.6038   0.0943   0.9828   1
1257.233   0.9069   0.1017   0.9829   1
1257.293   1.1198   0.1062   0.9829   1
1257.353   0.7673   0.0886   0.9830   1
1257.413   0.7871   0.0959   0.9830   1
1257.472   0.9128   0.1129   0.9831   1
1257.532   1.0989   0.1075   0.9831   1
1257.592   0.9802   0.0993   0.9832   1
1257.652   0.9597   0.0948   0.9832   1
1257.712   1.0671   0.1051   0.9833   1
1257.772   0.8289   0.1109   0.9833   1
1257.831   0.9844   0.1013   0.9834   1
1257.891   0.9778   0.1034   0.9834   1
1257.951   0.9834   0.0950   0.9835   1
1258.011   0.7942   0.0943   0.9835   1
1258.071   0.8869   0.1110   0.9836   1
1258.130   0.7862   0.0952   0.9836   1
1258.190   0.9928   0.1025   0.9837   1
1258.250   0.8769   0.0933   0.9837   1
1258.310   0.7782   0.0934   0.9838   1
1258.370   0.6473   0.0930   0.9838   1
1258.430   0.7038   0.0893   0.9838   1
1258.489   0.5914   0.0842   0.9839   1
1258.549   0.8078   0.0860   0.9839   0
1258.609   0.6624   0.0857   0.9840   0
1258.669   0.8342   0.1082   0.9840   0
1258.729   1.0963   0.1049   0.9841   0
1258.788   0.9652   0.1003   0.9841   0
1258.848   0.9258   0.0909   0.9842   0
1258.908   0.6965   0.0878   0.9842   0
1258.968   1.1437   0.1199   0.9843   0
1259.028   0.7042   0.0901   0.9843   0
1259.088   0.8567   0.0965   0.9843   0
1259.147   0.8576   0.0888   0.9844   0
1259.207   0.6656   0.0877   0.9844   0
1259.267   0.8160   0.1023   0.9845   0
1259.327   0.8197   0.0933   0.9845   0
1259.387   0.7487   0.0920   0.9846   0
1259.447   0.5884   0.0769   0.9846   0
1259.506   0.4500   0.0746   0.9846   0
1259.566   0.4809   0.0817   0.9847   0
1259.626   0.4484   0.0759   0.9847   0
1259.686   0.5765   0.0813   0.9848   0
1259.746   0.6666   0.0814   0.9848   0
1259.805   0.5084   0.0778   0.9849   0
1259.865   0.8462   0.1023   0.9849   0
1259.925   0.4791   0.0821   0.9849   0
1259.985   0.6344   0.0831   0.9850   0
1260.045   0.4491   0.0709   0.9850   0
1260.104   0.4632   0.0734   0.9851   0
1260.164   0.3615   0.0755   0.9851   0
1260.224   0.3759   0.0704   0.9851   0
1260.284   0.2251   0.0595   0.9852   0
1260.344   0.1657   0.0483   0.9852   0
1260.404   0.0611   0.0387   0.9853   0
1260.464   0.0897   0.0478   0.9853   0
1260.523   0.0417   0.0351   0.9853   0
1260.583   0.0878   0.0396   0.9854   0
1260.643   0.0853   0.0397   0.9854   0
1260.703   0.0923   0.0413   0.9855   0
1260.763   0.0969   0.0460   0.9855   0
1260.822   0.1635   0.0503   0.9855   0
1260.882   0.3027   0.0623   0.9856   0
1260.942   0.1875   0.0526   0.9856   0
1261.002   0.2455   0.0614   0.9857   0
1261.062   0.3236   0.0730   0.9857   0
1261.121   0.5133   0.0778   0.9857   0
1261.181   0.5955   0.0825   0.9858   0
1261.241   0.5028   0.0699   0.9858   0
1261.301   0.5654   0.0810   0.9859   0
1261.361   0.3470   0.0799   0.9859   0
1261.421   0.4301   0.0738   0.9859   0
1261.480   0.3431   0.0673   0.9860   0
1261.540   0.3688   0.0642   0.9860   0
1261.600   0.2620   0.0665   0.9860   0
1261.660   0.2860   0.0676   0.9861   0
1261.720   0.1833   0.0563   0.9861   0
1261.780   0.1687   0.0549   0.9861   0
1261.839   0.2882   0.0577   0.9862   0
1261.899   0.1814   0.0556   0.9862   0
1261.959   0.2356   0.0649   0.9863   0
1262.019   0.3143   0.0666   0.9863   0
1262.079   0.3968   0.0714   0.9863   0
1262.138   0.3055   0.0587   0.9864   0
1262.198   0.1759   0.0565   0.9864   0
1262.258   0.2149   0.0640   0.9864   0
1262.318   0.1567   0.0532   0.9865   0
1262.378   0.0872   0.0447   0.9865   0
1262.438   0.0986   0.0382   0.9865   0
1262.497   0.0596   0.0363   0.9866   0
1262.557   0.0878   0.0465   0.9866   0
1262.617   0.0356   0.0312   0.9866   0
1262.677   0.0671   0.0374   0.9867   0
1262.737   0.1151   0.0429   0.9867   0
1262.796   0.0971   0.0447   0.9868   0
1262.856   0.1470   0.0558   0.9868   0
1262.916   0.0934   0.0427   0.9868   0
1262.976   0.1828   0.0555   0.9869   0
1263.036   0.3409   0.0637   0.9869   0
1263.096   0.5485   0.0839   0.9869   0
1263.155   0.6563   0.1023   0.9870   0
1263.215   0.5264   0.0817   0.9870   0
1263.275   0.6385   0.0838   0.9870   0
1263.335   0.7330   0.0844   0.9871   0
1263.395   0.8880   0.0963   0.9871   0
1263.454   0.9173   0.1069   0.9871   0
1263.514   0.8778   0.0976   0.9872   0
1263.574   0.8621   0.0945   0.9872   0
1263.634   0.7972   0.0906   0.9872   0
1263.694   0.7572   0.0899   0.9873   0
1263.754   0.9004   0.1129   0.9873   0
1263.813   0.9444   0.0998   0.9873   0
1263.873   0.8022   0.0975   0.9873   1
1263.933   0.9155   0.0897   0.9874   1
1263.993   1.1508   0.1073   0.9874   1
1264.053   0.6213   0.1087   0.9874   1
1264.112   1.0439   0.1070   0.9875   1
1264.172   0.9004   0.0993   0.9875   1
1264.232   0.9279   0.0926   0.9875   1
1264.292   0.7352   0.0967   0.9876   1
1264.352   1.0105   0.1151   0.9876   1
1264.412   1.0573   0.1063   0.9876   1
1264.471   1.0191   0.1034   0.9877   1
1264.531   0.9783   0.0920   0.9877   1
1264.591   0.9667   0.1053   0.9877   1
1264.651   0.8333   0.1021   0.9878   1
1264.711   0.9093   0.1000   0.9878   1
1264.771   1.0252   0.1076   0.9878   1
1264.830   0.9834   0.0958   0.9878   1
1264.890   1.0554   0.1126   0.9879   1
1264.950   0.8720   0.1113   0.9879   1
1265.010   1.0627   0.1054   0.9879   1
1265.070   0.6217   0.0884   0.9880   1
1265.129   0.9626   0.0978   0.9880   1
1265.189   0.7364   0.0967   0.9880   1
1265.249   0.9495   0.1134   0.9881   1
1265.309   0.8723   0.1003   0.9881   1
1265.369   1.1752   0.1091   0.9881   1
1265.428   0.9280   0.0926   0.9881   1
1265.488   1.0361   0.1075   0.9882   1
1265.548   0.9325   0.1080   0.9882   1
1265.608   0.8378   0.0953   0.9882   1
1265.668   1.0357   0.1014   0.9883   1
1265.728   0.8849   0.0886   0.9883   1
1265.787   1.2574   0.1145   0.9883   1
1265.847   1.2433   0.1230   0.9883   1
1265.907   0.6564   0.1019   0.9884   1
1265.967   0.9563   0.1037   0.9884   1
1266.027   0.9905   0.0976   0.9884   1
1266.087   1.0025   0.1035   0.9885   1
1266.146   0.8907   0.1123   0.9885   1
1266.206   0.9757   0.1022   0.9885   1
1266.266   1.1610   0.1076   0.9885   1
1266.326   1.0806   0.0989   0.9886   1
1266.386   1.0252   0.1024   0.9886   1
1266.445   1.0436   0.1153   0.9886   1
1266.505   0.8950   0.0977   0.9886   1
1266.565   0.8566   0.0967   0.9887   1
1266.625   0.7778   0.0904   0.9887   1
1266.685   0.9800   0.0998   0.9887   1
1266.745   0.7208   0.0997   0.9888   1
1266.804   0.6701   0.0870   0.9888   1
1266.864   0.7359   0.0907   0.9888   1
1266.924   0.9493   0.0931   0.9888   1
1266.984   0.5587   0.0870   0.9889   1
1267.044   0.6567   0.0979   0.9889   1
1267.104   0.6433   0.0854   0.9889   1
1267.163   0.8218   0.0935   0.9889   1
1267.223   0.9127   0.0905   0.9890   1
1267.283   0.8778   0.0961   0.9890   1
1267.343   0.9267   0.1072   0.9890   1
1267.403   0.6963   0.0907   0.9890   1
1267.462   0.8636   0.1016   0.9891   1
1267.522   1.0891   0.1031   0.9891   1
1267.582   0.9558   0.1000   0.9891   1
1267.642   1.1950   0.1224   0.9891   1
1267.702   1.1266   0.1083   0.9892   1
1267.761   1.0682   0.1027   0.9892   1
1267.821   0.9416   0.0915   0.9892   1
1267.881   0.9198   0.1055   0.9892   1
1267.941   0.9142   0.1095   0.9893   1
1268.001   1.0421   0.1056   0.9893   1
1268.061   0.6988   0.0964   0.9893   1
1268.120   0.7644   0.0869   0.9893   1
1268.180   0.8272   0.0972   0.9894   1
1268.240   0.7606   0.1054   0.9894   1
1268.300   0.9840   0.1038   0.9894   1
1268.360   0.9184   0.0985   0.9894   1
1268.420   0.7482   0.0850   0.9895   1
1268.479   0.8096   0.0931   0.9895   1
1268.539   0.9511   0.1087   0.9895   1
1268.599   0.9714   0.1027   0.9895   1
1268.659   1.1011   0.1088   0.9896   1
1268.719   1.0074   0.0979   0.9896   1
1268.778   0.7087   0.0915   0.9896   1
1268.838   1.2288   0.1211   0.9896   1
1268.898   1.1501   0.1089   0.9897   1
1268.958   0.9016   0.0998   0.9897   1
1269.018   1.0651   0.0972   0.9897   1
1269.078   0.7418   0.1004   0.9897   1
1269.137   1.0219   0.1102   0.9898   1
1269.197   1.1612   0.1116   0.9898   1
1269.257   1.0597   0.1047   0.9898   1
1269.317   0.9761   0.0959   0.9898   1
1269.377   0.9573   0.1067   0.9898   1
1269.436   0.7195   0.1011   0.9899   1
1269.496   0.8233   0.1022   0.9899   1
1269.556   0.8565   0.0971   0.9899   1
1269.616   0.8589   0.0911   0.9899   1
1269.676   0.8408   0.0987   0.9900   1
1269.736   0.8240   0.1046   0.9900   1
1269.795   0.9261   0.1028   0.9900   1
1269.855   0.8446   0.0986   0.9900   1
1269.915   1.0176   0.0968   0.9901   1
1269.975   0.8801   0.0973   0.9901   1
1270.035   1.0140   0.1120   0.9901   1
1270.094   1.2087   0.1119   0.9901   1
1270.154   1.2333   0.1122   0.9901   1
1270.214   1.0336   0.0993   0.9902   1
1270.274   1.0224   0.1049   0.9902   1
1270.334   0.9885   0.1247   0.9902   1
1270.394   0.9950   0.1172   0.9902   1
1270.453   1.1320   0.1268   0.9903   1
1270.513   1.0997   0.1124   0.9903   1
1270.573   1.0454   0.1231   0.9903   1
1270.633   0.9903   0.1287   0.9903   1
1270.693   0.8058   0.1100   0.9903   1
1270.752   1.1107   0.1213   0.9904   1
1270.812   0.9954   0.1080   0.9904   1
1270.872   0.7233   0.1074   0.9904   1
1270.932   0.8701   0.1222   0.9904   1
1270.992   0.7736   0.1085   0.9904   1
1271.052   0.7856   0.1038   0.9905   1
1271.111   0.8847   0.1093   0.9905   1
1271.171   0.9777   0.1215   0.9905   1
1271.231   0.8749   0.1273   0.9905   1
1271.291   0.9255   0.1154   0.9905   1
1271.351   0.9305   0.1169   0.9906   1
1271.411   0.5447   0.0949   0.9906   1
1271.470   1.0241   0.1201   0.9906   1
1271.530   0.9173   0.1258   0.9906   1
1271.590   0.7248   0.1030   0.9907   1
1271.650   0.8562   0.1104   0.9907   1
1271.710   0.9296   0.1060   0.9907   1
1271.769   1.0601   0.1263   0.9907   1
1271.829   0.7733   0.1236   0.9907   1
1271.889   1.1364   0.1226   0.9908   1
1271.949   1.0011   0.1224   0.9908   1
1272.009   0.8317   0.1070   0.9908   1
1272.068   0.9934   0.1219   0.9908   1
1272.128   0.9536   0.1238   0.9908   1
1272.188   0.9141   0.1151   0.9909   1
1272.248   1.0230   0.1246   0.9909   1
1272.308   0.8678   0.1046   0.9909   1
1272.368   1.0058   0.1222   0.9909   1
1272.427   0.6779   0.1137   0.9909   1
1272.487   1.0597   0.1200   0.9909   1
1272.547   0.7513   0.1043   0.9910   1
1272.607   0.8644   0.1023   0.9910   1
1272.667   0.9484   0.1133   0.9910   1
1272.727   0.7966   0.1165   0.9910   1
1272.786   1.1029   0.1243   0.9910   1
1272.846   0.9827   0.1166   0.9911   1
1272.906   0.8955   0.1019   0.9911   1
1272.966   0.8859   0.1170   0.9911   1
1273.026   1.0273   0.1391   0.9911   1
1273.085   1.1189   0.1212   0.9911   1
1273.145   0.7814   0.1083   0.9912   1
1273.205   1.0814   0.1100   0.9912   1
1273.265   0.7828   0.1058   0.9912   1
1273.325   1.1178   0.1372   0.9912   1
1273.385   0.6526   0.1044   0.9912   1
1273.444   0.9768   0.1506   0.9913   1
1273.504   0.8895   0.1284   0.9913   1
1273.564   1.0046   0.1578   0.9913   1
1273.624   0.8892   0.1502   0.9913   1
1273.684   1.2369   0.1578   0.9913   1
1273.744   0.8862   0.1390   0.9913   1
1273.803   0.9281   0.1307   0.9914   1
1273.863   0.8841   0.1357   0.9914   1
1273.923   1.0343   0.1566   0.9914   1
1273.983   1.2136   0.1553   0.9914   1
1274.043   0.9958   0.1418   0.9914   1
1274.102   1.0580   0.1340   0.9915   1
1274.162   1.0473   0.1503   0.9915   1
1274.222   0.8339   0.1442   0.9915   1
1274.282   0.6823   0.1328   0.9915   1
1274.342   0.8874   0.1345   0.9915   1
1274.401   1.0040   0.1328   0.9915   1
1274.461   1.0231   0.1421   0.9916   1
1274.521   0.9473   0.1515   0.9916   1
1274.581   1.1341   0.1503   0.9916   1
1274.641   0.8075   0.1371   0.9916   1
1274.701   0.9398   0.1283   0.9916   1
1274.760   1.1817   0.1535   0.9916   1
1274.820   0.9154   0.1521   0.9917   1
1274.880   1.0893   0.1506   0.9917   1
1274.940   1.0261   0.1442   0.9917   1
1275.000   1.1015   0.1371   0.9917   1
1275.060   0.9342   0.1398   0.9917   1
1275.119   0.9738   0.1569   0.9917   1
1275.179   1.0057   0.1448   0.9918   1
1275.239   0.9203   0.1361   0.9918   1
1275.299   0.9256   0.1290   0.9918   1
1275.359   0.8636   0.1360   0.9918   1
1275.418   0.8519   0.1493   0.9918   1
1275.478   1.1692   0.1488   0.9918   1
1275.538   0.9748   0.1672   0.9919   1
1275.598   1.1635   0.2025   0.9919   1
1275.658   0.9498   0.2010   0.9919   1
1275.718   0.8233   0.2078   0.9919   1
1275.777   0.9446   0.2003   0.9919   1
1275.837   1.1473   0.2169   0.9919   1
1275.897   0.7491   0.1687   0.9920   1
1275.957   1.2273   0.2227   0.9920   1
1276.017   0.6566   0.1895   0.9920   1
1276.076   1.0079   0.2049   0.9920   1
1276.136   1.1781   0.2186   0.9920   1
1276.196   0.5984   0.1547   0.9920   1
1276.256   1.2517   0.2243   0.9921   1
1276.316   0.7456   0.1987   0.9921   1
1276.376   1.5964   0.2489   0.9921   1
1276.435   0.7001   0.1766   0.9921   1
1276.495   1.1916   0.2029   0.9921   1
1276.555   0.9173   0.1966   0.9921   1
1276.615   1.0280   0.2257   0.9922   1
1276.675   1.0442   0.2073   0.9922   1
1276.734   0.6829   0.1750   0.9922   1
1276.794   1.1504   0.1997   0.9922   1
1276.854   1.4294   0.2367   0.9922   1
1276.914   1.0285   0.2252   0.9922   1
1276.974   0.9572   0.1996   0.9922   1
1277.034   0.6467   0.1710   0.9923   1
1277.093   0.8776   0.1782   0.9923   1
1277.153   0.8885   0.1933   0.9923   1
1277.213   0.9862   0.2208   0.9923   1
1277.273   0.7508   0.1806   0.9923   1
1277.333   1.0591   0.2074   0.9923   1
1277.392   0.6699   0.1599   0.9924   1
1277.452   0.9190   0.1955   0.9924   1
1277.512   0.9823   0.2199   0.9924   1
1277.572   0.8859   0.1923   0.9924   1
1277.632   0.7836   0.1829   0.9924   1
1277.692   0.9915   0.1862   0.9924   1
1277.751   0.9875   0.2007   0.9924   1
1277.811   1.1430   0.2336   0.9925   1
1277.871   0.3398   0.1353   0.9925   1
1277.931   0.0000   0.0826   0.9925   1
1277.991   0.0000   0.0764   0.9925   1
1278.051   0.0000   0.0826   0.9925   1
1278.110   0.0000   0.0904   0.9925   1
1278.170   0.0000   0.0825   0.9925   1
1278.230   0.0000   0.0825   0.9926   1
1278.290   0.0000   0.0764   0.9926   1
1278.350   0.0000   0.0825   0.9926   1
1278.409   0.0000   0.0904   0.9926   1
1278.469   0.0000   0.0825   0.9926   1
1278.529   0.0000   0.0825   0.9926   1
1278.589   0.0000   0.0764   0.9926   1
1278.649   0.0000   0.0825   0.9927   1
1278.708   0.0000   0.0904   0.9927   1
1278.768   0.0000   0.0825   0.9927   1
1278.828   0.0000   0.0825   0.9927   1
1278.888   0.0000   0.0764   0.9927   1
1278.948   0.0000   0.0825   0.9927   1
1279.008   0.0000   0.0904   0.9927   1
1279.068   0.0000   0.0825   0.9928   1
1279.127   0.0000   0.0825   0.9928   1
1279.187   0.0000   0.0764   0.9928   1
1279.247   0.0000   0.0826   0.9928   1
1279.307   0.0000   0.0904   0.9928   1
1279.367   0.0000   0.0826   0.9928   1
1279.426   0.0000   0.0826   0.9928   1
1279.486   0.0000   0.0764   0.9929   1
1279.546   0.0000   0.0826   0.9929   1
1279.606   0.0000   0.0905   0.9929   1
1279.666   0.0000   0.0826   0.9929   1
1279.725   0.0000   0.0826   0.9929   1
1279.785   0.0000   0.0765   0.9929   1
1279.845   0.0000   0.0826   0.9929   1
1279.905   0.0000   0.0905   0.9929   1
1279.965   0.0000   0.0826   0.9930   1
1280.025   0.0000   0.0826   0.9930   1
1280.084   0.0000   0.0765   0.9930   1
1280.144   0.0000   0.0826   0.9930   1
1280.204   0.0000   0.0905   0.9930   1
1280.264   0.0000   0.0826   0.9930   1
1280.324   0.0000   0.0826   0.9930   1
1280.384   0.0000   0.0765   0.9931   1
1280.443   0.0000   0.0827   0.9931   1
1280.503   0.0000   0.0905   0.9931   1
1280.563   0.0000   0.0827   0.9931   1
1280.623   0.0000   0.0827   0.9931   1
1280.683   0.0000   0.0765   0.9931   1
1280.742   0.0000   0.0827   0.9931   1
1280.802   0.0000   0.0906   0.9931   1
1280.862   0.0000   0.0827   0.9932   1
1280.922   0.0000   0.0827   0.9932   1
1280.982   0.0000   0.0766   0.9932   1
1281.042   0.0000   0.0827   0.9932   1
1281.101   0.0000   0.0906   0.9932   1
1281.161   0.0000   0.0827   0.9932   1
1281.221   0.0000   0.0828   0.9932   1
1281.281   0.0000   0.0766   0.9932   1
1281.341   0.0000   0.0828   0.9933   1
1281.400   0.0000   0.0907   0.9933   1
1281.460   0.0000   0.0828   0.9933   1
1281.520   0.0000   0.0828   0.9933   1
1281.580   0.0000   0.0767   0.9933   1
1281.640   0.0000   0.0828   0.9933   1
1281.700   0.0000   0.0908   0.9933   1
1281.759   0.0000   0.0829   0.9933   1
1281.819   0.0000   0.0829   0.9934   1
1281.879   0.0000   0.0767   0.9934   1
1281.939   0.0000   0.0829   0.9934   1
1281.999   0.0000   0.0908   0.9934   1
1282.058   0.0000   0.0829   0.9934   1
1282.118   0.0000   0.0829   0.9934   1
1282.178   0.0000   0.0768   0.9934   1
1282.238   0.0000   0.0830   0.9934   1
1282.298   0.0000   0.0909   0.9935   1
1282.358   0.0000   0.0830   0.9935   1
1282.417   0.0000   0.0830   0.9935   1
1282.477   0.0000   0.0769   0.9935   1
1282.537   0.0000   0.0831   0.9935   1
1282.597   0.0000   0.0910   0.9935   1
1282.657   0.0000   0.0831   0.9935   1
1282.716   0.0000   0.0831   0.9935   1
1282.776   0.0000   0.0769   0.9935   1
1282.836   0.0000   0.0831   0.9936   1
1282.896   0.0000   0.0911   0.9936   1
1282.956   0.0000   0.0832   0.9936   1
1283.016   0.0000   0.0832   0.9936   1
1283.075   0.0000   0.0770   0.9936   1
1283.135   0.0000   0.0832   0.9936   1
1283.195   0.0000   0.0912   0.9936   1
1283.255   0.0000   0.0833   0.9936   1
1283.315   0.0000   0.0833   0.9936   1
1283.375   0.0000   0.0771   0.9937   1
1283.434   0.0000   0.0833   0.9937   1
1283.494   0.0000   0.0913   0.9937   1
1283.554   0.0000   0.0834   0.9937   1
1283.614   0.0000   0.0834   0.9937   1
1283.674   0.0000   0.0772   0.9937   1
1283.733   0.0000   0.0834   0.9937   1
1283.793   0.0000   0.0914   0.9937   1
1283.853   0.0000   0.0835   0.9938   1
1283.913   0.0000   0.0835   0.9938   1
1283.973   0.0000   0.0773   0.9938   1
1284.032   0.0000   0.0835   0.9938   1
1284.092   0.0000   0.0915   0.9938   1
1284.152   0.0000   0.0836   0.9938   1
1284.212   0.0000   0.0836   0.9938   1
1284.272   0.0000   0.0774   0.9938   1
1284.332   0.0000   0.0837   0.9938   1
1284.391   0.0000   0.0917   0.9939   1
1284.451   0.0000   0.0837   0.9939   1
1284.511   0.0000   0.0837   0.9939   1
1284.571   0.0000   0.0775   0.9939   1
1284.631   0.0000   0.0838   0.9939   1
1284.691   0.0000   0.0918   0.9939   1
1284.750   0.0000   0.0838   0.9939   1
1284.810   0.0000   0.0839   0.9939   1
1284.870   0.0000   0.0777   0.9939   1
1284.930   0.0000   0.0839   0.9939   1
1284.990   0.0000   0.0920   0.9940   1
1285.049   0.0000   0.0840   0.9940   1
1285.109   0.0000   0.0840   0.9940   1
1285.169   0.0000   0.0778   0.9940   1
1285.229   0.0000   0.0841   0.9940   1
1285.289   0.0000   0.0921   0.9940   1
1285.349   0.0000   0.0841   0.9940   1
1285.408   0.0000   0.0841   0.9940   1
1285.468   0.0000   0.0779   0.9940   1
1285.528   0.0000   0.0842   0.9941   1
1285.588   0.0000   0.0923   0.9941   1
1285.648   0.0000   0.0843   0.9941   1
1285.708   0.0000   0.0843   0.9941   1
1285.767   0.0000   0.0781   0.9941   1
1285.827   0.0000   0.0844   0.9941   1
1285.887   0.0000   0.0925   0.9941   1
1285.947   0.0000   0.0844   0.9941   1
1286.007   0.0000   0.0845   0.9941   1
1286.066   0.0000   0.0782   0.9941   1
1286.126   0.0000   0.0845   0.9942   1
1286.186   0.0000   0.0926   0.9942   1
1286.246   0.0000   0.0846   0.9942   1
1286.306   0.0000   0.0846   0.9942   1
1286.365   0.0000   0.0784   0.9942   1
1286.425   0.0000   0.0847   0.9942   1
1286.485   0.0000   0.0928   0.9942   1
1286.545   0.0000   0.0848   0.9942   1
1286.605   0.0000   0.0848   0.9942   1
1286.665   0.0000   0.0786   0.9942   1
1286.724   0.0000   0.0849   0.9943   1
1286.784   0.0000   0.0930   0.9943   1
1286.844   0.0000   0.0850   0.9943   1
1286.904   0.8633   0.1930   0.9943   1
1286.964   0.8038   0.1736   0.9943   1
1287.024   0.9371   0.1995   0.9943   1
1287.083   0.6287   0.1869   0.9943   1
1287.143   1.0122   0.2059   0.9943   1
1287.203   0.8994   0.1961   0.9943   1
1287.263   0.9316   0.1841   0.9943   1
1287.323   1.2751   0.2268   0.9943   1
1287.382   0.7180   0.1965   0.9944   1
1287.442   0.8232   0.1892   0.9944   1
1287.502   1.3870   0.2351   0.9944   1
1287.562   0.8660   0.1787   0.9944   1
1287.622   0.7471   0.1821   0.9944   1
1287.682   0.8502   0.2101   0.9944   1
1287.741   0.8955   0.1958   0.9944   1
1287.801   1.1587   0.2178   0.9944   1
1287.861   0.5088   0.1463   0.9944   1
1287.921   0.7077   0.1784   0.9944   1
1287.981   0.9415   0.2188   0.9945   1
1288.041   0.5961   0.1671   0.9945   1
1288.100   1.0856   0.2117   0.9945   1
1288.160   0.6061   0.1558   0.9945   1
1288.220   0.5208   0.1592   0.9945   1
1288.280   0.6719   0.1915   0.9945   1
1288.340   0.8230   0.1891   0.9945   1
1288.399   0.8238   0.1891   0.9945   1
1288.459   0.9969   0.1891   0.9945   1
1288.519   0.7123   0.1786   0.9945   1
1288.579   1.0370   0.2274   0.9945   1
1288.639   0.8246   0.1892   0.9946   1
1288.698   0.6012   0.1673   0.9946   1
1288.758   0.5476   0.1497   0.9946   1
1288.818   0.9419   0.1994   0.9946   1
1288.878   0.7682   0.2013   0.9946   1
1288.938   0.9422   0.1994   0.9946   1
1288.998   0.7901   0.1859   0.9946   1
1289.057   0.8383   0.1763   0.9946   1
1289.117   0.9794   0.2029   0.9946   1
1289.177   0.6322   0.1870   0.9946   1
1289.237   0.8298   0.1897   0.9946   1
1289.297   1.0581   0.2095   0.9947   1
1289.357   1.0060   0.1900   0.9947   1
1289.416   0.6438   0.1721   0.9947   1
1289.476   0.9105   0.2160   0.9947   1
1289.536   0.8339   0.1904   0.9947   1
1289.596   1.4452   0.2396   0.9947   1
1289.656   0.8476   0.1774   0.9947   1
1289.715   0.7239   0.1801   0.9947   1
1289.775   1.0535   0.2295   0.9947   1
1289.835   0.9548   0.2012   0.9947   1
1289.895   0.7639   0.1841   0.9947   1
1289.955   1.0488   0.1940   0.9947   1
1290.015   0.8798   0.1950   0.9948   1
1290.074   0.7815   0.2038   0.9948   1
1290.134   0.8990   0.1756   0.9948   1
1290.194   0.6497   0.1265   0.9948   1
1290.254   0.9063   0.1374   0.9948   1
1290.314   0.9424   0.1451   0.9948   1
1290.373   0.8901   0.1461   0.9948   1
1290.433   0.6736   0.1216   0.9948   1
1290.493   0.7518   0.1338   0.9948   1
1290.553   0.9683   0.1297   0.9948   1
1290.613   0.9072   0.1376   0.9948   1
1290.673   0.9686   0.1553   0.9948   1
1290.732   0.8955   0.1464   0.9949   1
1290.792   0.7875   0.1282   0.9949   1
1290.852   0.9022   0.1297   0.9949   1
1290.912   0.8258   0.1351   0.9949   1
1290.972   0.9466   0.1577   0.9949   1
1291.031   0.7421   0.1263   0.9949   1
1291.091   0.6971   0.1321   0.9949   1
1291.151   0.7606   0.1177   0.9949   1
1291.211   0.5599   0.1214   0.9949   1
1291.271   0.8440   0.1499   0.9949   1
1291.331   0.8319   0.1331   0.9949   1
1291.390   0.6357   0.1251   0.9949   1
1291.450   0.8006   0.1231   0.9950   1
1291.510   1.1012   0.1501   0.9950   1
1291.570   0.8203   0.1477   0.9950   1
1291.630   0.8976   0.1432   0.9950   1
1291.689   0.8656   0.1386   0.9950   1
1291.749   0.6082   0.1114   0.9950   1
1291.809   0.7795   0.1301   0.9950   1
1291.869   0.6654   0.1387   0.9950   1
1291.929   1.1456   0.1552   0.9950   1
1291.989   1.0865   0.1493   0.9950   1
1292.048   0.7683   0.1249   0.9950   1
1292.108   1.2371   0.1642   0.9950   1
1292.168   0.8585   0.1388   0.9951   1
1292.228   0.7698   0.1086   0.9951   1
1292.288   0.7462   0.1066   0.9951   1
1292.348   0.9113   0.1070   0.9951   1
1292.407   0.7503   0.1078   0.9951   1
1292.467   0.5982   0.1203   0.9951   1
1292.527   1.0115   0.1256   0.9951   1
1292.587   0.6787   0.1095   0.9951   1
1292.647   0.8938   0.1072   0.9951   1
1292.706   1.0965   0.1269   0.9951   1
1292.766   1.0127   0.1374   0.9951   1
1292.826   0.8977   0.1234   0.9951   1
1292.886   0.8127   0.1187   0.9951   1
1292.946   0.7853   0.1034   0.9952   1
1293.005   0.7294   0.1104   0.9952   1
1293.065   1.0247   0.1403   0.9952   1
1293.125   0.6614   0.1101   0.9952   1
1293.185   0.9959   0.1237   0.9952   1
1293.245   0.7217   0.1042   0.9952   1
1293.305   0.8204   0.1143   0.9952   1
1293.365   0.8790   0.1265   0.9952   1
1293.424   0.8029   0.1190   0.9952   1
1293.484   1.1883   0.1320   0.9952   1
1293.544   0.6697   0.0997   0.9952   1
1293.604   0.8330   0.1160   0.9952   1
1293.664   0.8577   0.1287   0.9952   1
1293.723   0.9103   0.1192   0.9952   1
1293.783   0.8889   0.1174   0.9953   1
1293.843   0.7481   0.1030   0.9953   1
1293.903   1.0838   0.1262   0.9953   1
1293.963   0.9862   0.1392   0.9953   1
1294.022   0.6519   0.1135   0.9953   1
1294.082   0.5684   0.1103   0.9953   1
1294.142   0.9429   0.1118   0.9953   1
1294.202   0.8878   0.1172   0.9953   1
1294.262   0.8349   0.1337   0.9953   1
1294.322   1.0584   0.1303   0.9953   1
1294.381   0.8979   0.1219   0.9953   1
1294.441   0.7954   0.1075   0.9953   1
1294.501   1.0345   0.1263   0.9953   1
1294.561   0.8982   0.1139   0.9954   1
1294.621   0.8411   0.1096   0.9954   1
1294.681   0.9054   0.1086   0.9954   1
1294.740   0.8770   0.1012   0.9954   1
1294.800   1.2288   0.1226   0.9954   1
1294.860   0.9215   0.1246   0.9954   1
1294.920   0.9584   0.1119   0.9954   1
1294.980   1.0837   0.1215   0.9954   1
1295.039   0.8530   0.1031   0.9954   1
1295.099   0.9782   0.1155   0.9954   1
1295.159   0.8821   0.1229   0.9954   1
1295.219   0.8331   0.1044   0.9954   1
1295.279   0.8533   0.1065   0.9954   1
1295.339   0.8724   0.0994   0.9954   1
1295.398   1.0922   0.1174   0.9954   1
1295.458   1.0172   0.1262   0.9955   1
1295.518   1.1341   0.1181   0.9955   1
1295.578   0.9380   0.1093   0.9955   1
1295.638   0.9441   0.1022   0.9955   1
1295.697   0.8867   0.1123   0.9955   1
1295.757   0.8911   0.1243   0.9955   1
1295.817   0.9500   0.1136   0.9955   1
1295.877   0.9461   0.1167   0.9955   1
1295.937   1.1669   0.1159   0.9955   1
1295.997   0.8500   0.1084   0.9955   1
1296.056   0.8291   0.1194   0.9955   1
1296.116   0.9535   0.1142   0.9955   1
1296.176   0.9435   0.1071   0.9955   1
1296.236   0.7314   0.0973   0.9955   1
1296.296   0.6842   0.1038   0.9956   1
1296.355   0.8227   0.1242   0.9956   1
1296.415   0.6763   0.1036   0.9956   1
1296.475   0.8121   0.1111   0.9956   1
1296.535   0.7968   0.0960   0.9956   1
1296.595   0.9341   0.1118   0.9956   1
1296.655   0.8716   0.1190   0.9956   1
1296.714   0.5730   0.0987   0.9956   1
