# Best-fit normalized data and profile from VoigtFit
# column 1 : Wavelength
# column 2 : Normalized flux
# column 3 : Normalized error
# column 4 : Best-fit profile
# column 5 : Pixel mask, 1=included, 0=excluded
1134.572   1.2521   0.5896   0.9961   1
1134.632   0.8020   0.5310   0.9961   1
1134.692   0.4408   0.4748   0.9961   1
1134.751   0.3472   0.4608   0.9961   1
1134.811   0.3448   0.4598   0.9961   1
1134.871   0.8776   0.5380   0.9961   1
1134.931   0.8746   0.5363   0.9961   1
1134.991   0.8026   0.5416   0.9961   1
1135.050   0.9897   0.5807   0.9961   1
1135.110   1.1070   0.4202   0.9961   1
1135.170   1.0519   0.4142   0.9961   1
1135.230   0.8601   0.3896   0.9961   1
1135.290   0.8010   0.3814   0.9961   1
1135.349   0.8622   0.3884   0.9961   1
1135.409   0.7422   0.3733   0.9961   1
1135.469   0.7664   0.3679   0.9961   1
1135.529   0.7025   0.3602   0.9960   1
1135.589   0.8356   0.3719   0.9960   1
1135.649   0.4338   0.3298   0.9960   1
1135.708   0.5220   0.3393   0.9960   1
1135.768   0.5212   0.3387   0.9960   1
1135.828   0.5206   0.3387   0.9960   1
1135.888   0.2113   0.3014   0.9960   1
1135.948   0.3430   0.3176   0.9960   1
1136.008   0.2984   0.3108   0.9960   1
1136.067   0.2541   0.3055   0.9960   1
1136.127   0.1662   0.2933   0.9960   1
1136.187   0.1234   0.2874   0.9960   1
1136.247   0.0807   0.2809   0.9960   1
1136.307   0.1669   0.2927   0.9960   1
1136.366   0.0368   0.2738   0.9960   1
1136.426   0.0368   0.2736   0.9960   1
1136.486   -0.0073   0.2668   0.9960   1
1136.546   -0.0075   0.2666   0.9959   1
1136.606   0.1310   0.2875   0.9959   1
1136.666   0.0385   0.2733   0.9959   1
1136.725   0.3927   0.3195   0.9959   1
1136.785   0.5086   0.3321   0.9959   1
1136.845   0.1601   0.2888   0.9959   1
1136.905   0.0752   0.2767   0.9959   1
1136.965   0.0332   0.2703   0.9959   1
1137.024   0.0760   0.2760   0.9959   1
1137.084   0.1600   0.2868   0.9959   1
1137.144   0.2007   0.2920   0.9959   1
1137.204   0.4765   0.2658   0.9959   1
1137.264   0.5909   0.2754   0.9959   1
1137.324   0.7100   0.2853   0.9959   1
1137.383   0.8878   0.2993   0.9959   1
1137.443   0.7204   0.2859   0.9959   1
1137.503   0.9375   0.3057   0.9958   1
1137.563   0.8571   0.2963   0.9958   1
1137.623   1.0980   0.3136   0.9958   1
1137.682   0.8057   0.2920   0.9958   1
1137.742   0.8869   0.2953   0.9958   1
1137.802   1.0542   0.3075   0.9958   1
1137.862   0.9124   0.2970   0.9958   1
1137.922   0.8183   0.2926   0.9958   1
1137.982   1.0235   0.3097   0.9958   1
1138.041   0.9042   0.3051   0.9958   1
1138.101   0.7600   0.2935   0.9958   1
1138.161   1.0556   0.3131   0.9958   1
1138.221   0.8225   0.2950   0.9958   1
1138.281   0.7314   0.2930   0.9958   1
1138.340   0.9250   0.3074   0.9958   1
1138.400   0.7543   0.2899   0.9958   1
1138.460   0.9128   0.2963   0.9957   1
1138.520   0.8954   0.2933   0.9957   1
1138.580   0.8649   0.2900   0.9957   1
1138.640   0.8367   0.2881   0.9957   1
1138.699   0.8365   0.2887   0.9957   1
1138.759   0.7796   0.2842   0.9957   1
1138.819   1.0490   0.3038   0.9957   1
1138.879   1.0716   0.3049   0.9957   1
1138.939   1.0720   0.3034   0.9957   1
1138.999   0.8418   0.2883   0.9957   1
1139.058   0.8330   0.2884   0.9957   1
1139.118   0.7593   0.2840   0.9957   1
1139.178   0.8367   0.2884   0.9957   1
1139.238   1.0169   0.3010   0.9957   1
1139.298   0.9708   0.2968   0.9957   1
1139.357   0.5286   0.2608   0.9956   1
1139.417   0.7456   0.2778   0.9956   1
1139.477   0.6516   0.2725   0.9956   1
1139.537   0.6400   0.2713   0.9956   1
1139.597   0.8641   0.2902   0.9956   1
1139.656   0.9788   0.2968   0.9956   1
1139.716   0.8781   0.2874   0.9956   1
1139.776   0.9419   0.2915   0.9956   1
1139.836   0.7043   0.2730   0.9956   1
1139.896   0.9671   0.2926   0.9956   1
1139.956   0.8626   0.2840   0.9956   1
1140.016   0.7504   0.2777   0.9956   1
1140.075   0.9682   0.2952   0.9956   1
1140.135   0.6263   0.2708   0.9956   1
1140.195   0.6588   0.2747   0.9956   1
1140.255   0.5268   0.2538   0.9955   1
1140.315   0.8211   0.2465   0.9955   1
1140.374   0.7954   0.2464   0.9955   1
1140.434   0.7689   0.2448   0.9955   1
1140.494   0.6431   0.2329   0.9955   1
1140.554   0.7914   0.2410   0.9955   1
1140.614   0.5249   0.2213   0.9955   1
1140.673   0.9000   0.2476   0.9955   1
1140.733   0.8194   0.2416   0.9955   1
1140.793   0.7388   0.2357   0.9955   1
1140.853   1.0711   0.2565   0.9955   1
1140.913   0.7959   0.2391   0.9955   1
1140.973   0.7749   0.2382   0.9955   1
1141.032   0.9501   0.2488   0.9955   1
1141.092   0.9101   0.2459   0.9954   1
1141.152   0.6796   0.2314   0.9954   1
1141.212   0.7173   0.2342   0.9954   1
1141.272   1.1954   0.2664   0.9954   1
1141.332   0.6802   0.2324   0.9954   1
1141.391   0.6634   0.2295   0.9954   1
1141.451   0.9053   0.2269   0.9954   1
1141.511   0.7713   0.2363   0.9954   1
1141.571   0.6846   0.2315   0.9954   1
1141.631   1.0024   0.2522   0.9954   1
1141.690   0.9380   0.2480   0.9954   1
1141.750   0.8777   0.2424   0.9954   1
1141.810   0.5719   0.2215   0.9954   1
1141.870   0.8547   0.2400   0.9954   1
1141.930   0.5914   0.2222   0.9953   1
1141.990   0.8737   0.2418   0.9953   1
1142.049   0.8071   0.2384   0.9953   1
1142.109   0.7079   0.2316   0.9953   1
1142.169   0.6781   0.2281   0.9953   0
1142.229   1.0187   0.2502   0.9953   0
1142.289   0.6991   0.2288   0.9953   0
1142.348   0.6828   0.2278   0.9953   0
1142.408   0.9340   0.2438   0.9953   0
1142.468   0.7676   0.2328   0.9953   0
1142.528   0.7690   0.2335   0.9953   0
1142.588   0.7637   0.2328   0.9953   0
1142.648   0.8869   0.2400   0.9953   0
1142.707   0.9746   0.2449   0.9952   0
1142.767   0.7842   0.2316   0.9952   0
1142.827   0.9895   0.2448   0.9952   0
1142.887   0.9487   0.2428   0.9952   0
1142.947   0.7980   0.2322   0.9952   0
1143.006   0.6279   0.2210   0.9952   0
1143.066   0.4963   0.2119   0.9952   0
1143.126   0.5321   0.2158   0.9952   0
1143.186   0.4264   0.2091   0.9952   0
1143.246   0.5190   0.2175   0.9952   0
1143.306   0.8060   0.2398   0.9952   0
1143.365   0.6774   0.2288   0.9952   0
1143.425   0.7162   0.2329   0.9952   0
1143.485   0.7365   0.2345   0.9951   0
1143.545   0.8624   0.2421   0.9951   0
1143.605   0.8257   0.2374   0.9951   0
1143.664   0.7754   0.2316   0.9951   0
1143.724   0.7327   0.2299   0.9951   0
1143.784   0.6938   0.2268   0.9951   0
1143.844   0.9730   0.2449   0.9951   0
1143.904   0.8576   0.2345   0.9951   0
1143.964   0.7463   0.2271   0.9951   0
1144.023   0.9392   0.2385   0.9951   0
1144.083   0.5789   0.2166   0.9951   0
1144.143   0.7188   0.2271   0.9951   0
1144.203   0.7379   0.2285   0.9950   0
1144.263   0.4449   0.2058   0.9950   0
1144.323   0.5868   0.2148   0.9950   0
1144.382   0.5424   0.2122   0.9950   0
1144.442   0.7242   0.2247   0.9950   0
1144.502   0.7967   0.2279   0.9950   0
1144.562   0.5964   0.2158   0.9950   0
1144.622   0.3990   0.2003   0.9950   0
1144.681   0.4454   0.2053   0.9950   0
1144.741   0.4266   0.2038   0.9950   0
1144.801   0.3337   0.1955   0.9950   0
1144.861   0.2542   0.1885   0.9950   0
1144.921   0.3410   0.1957   0.9949   0
1144.980   0.3752   0.1981   0.9949   0
1145.040   0.2477   0.1879   0.9949   0
1145.100   0.2846   0.1904   0.9949   0
1145.160   0.2857   0.1897   0.9949   0
1145.220   0.3945   0.1991   0.9949   0
1145.280   0.4481   0.2030   0.9949   0
1145.339   0.4119   0.2005   0.9949   0
1145.399   0.5035   0.2075   0.9949   0
1145.459   0.3247   0.1935   0.9949   0
1145.519   0.6748   0.2191   0.9949   0
1145.579   0.4941   0.2061   0.9949   0
1145.639   0.6821   0.2211   0.9948   0
1145.698   0.7134   0.2223   0.9948   0
1145.758   0.7730   0.2251   0.9948   0
1145.818   0.6978   0.2196   0.9948   0
1145.878   0.9121   0.2326   0.9948   0
1145.938   0.6772   0.2182   0.9948   0
1145.997   0.6597   0.2168   0.9948   0
1146.057   0.8366   0.2280   0.9948   0
1146.117   0.7099   0.2195   0.9948   0
1146.177   0.9786   0.2360   0.9948   0
1146.237   0.7810   0.2242   0.9948   0
1146.297   0.8387   0.2285   0.9948   0
1146.356   0.5396   0.2096   0.9947   0
1146.416   0.6362   0.2183   0.9947   0
1146.476   0.8485   0.2339   0.9947   0
1146.536   0.7019   0.2237   0.9947   0
1146.596   0.6254   0.2168   0.9947   0
1146.656   0.7267   0.2231   0.9947   0
1146.715   0.3856   0.1973   0.9947   0
1146.775   0.4228   0.2003   0.9947   0
1146.835   0.2970   0.1884   0.9947   0
1146.895   0.2422   0.1835   0.9947   0
1146.955   0.1185   0.1715   0.9947   0
1147.014   0.1896   0.1780   0.9946   0
1147.074   0.2440   0.1829   0.9946   0
1147.134   0.2459   0.1822   0.9946   0
1147.194   0.1421   0.1741   0.9946   0
1147.254   0.3095   0.1894   0.9946   0
1147.313   0.2517   0.1842   0.9946   0
1147.373   0.4315   0.1980   0.9946   0
1147.433   0.5528   0.2067   0.9946   0
1147.493   0.7741   0.2213   0.9946   0
1147.553   0.6850   0.2158   0.9946   0
1147.613   0.9145   0.2298   0.9945   0
1147.672   1.0380   0.2359   0.9945   0
1147.732   1.0736   0.2380   0.9945   0
1147.792   1.0728   0.2394   0.9945   1
1147.852   1.0013   0.2352   0.9945   1
1147.912   0.8236   0.2239   0.9945   1
1147.972   0.8761   0.2269   0.9945   1
1148.031   0.9990   0.2338   0.9945   1
1148.091   0.9271   0.2299   0.9945   1
1148.151   0.7848   0.2206   0.9945   1
1148.211   0.8712   0.2257   0.9945   1
1148.271   0.8031   0.2212   0.9944   1
1148.330   0.8199   0.2227   0.9944   1
1148.390   0.8014   0.2206   0.9944   1
1148.450   1.0707   0.2394   0.9944   1
1148.510   0.7475   0.2205   0.9944   1
1148.570   0.9920   0.2364   0.9944   1
1148.630   0.8818   0.2297   0.9944   1
1148.689   0.8825   0.2298   0.9944   1
1148.749   0.8230   0.2246   0.9944   1
1148.809   1.0228   0.2373   0.9944   1
1148.869   1.0938   0.2413   0.9943   1
1148.929   1.1420   0.2403   0.9943   1
1148.988   1.0240   0.2340   0.9943   1
1149.048   1.1460   0.2401   0.9943   1
1149.108   0.9008   0.2263   0.9943   1
1149.168   1.0927   0.2377   0.9943   1
1149.228   0.9690   0.2295   0.9943   1
1149.288   0.9152   0.2262   0.9943   1
1149.347   0.8450   0.2224   0.9943   1
1149.407   0.8091   0.2200   0.9943   1
1149.467   0.8437   0.2211   0.9942   1
1149.527   1.1378   0.2381   0.9942   1
1149.587   1.0343   0.2324   0.9942   1
1149.646   0.9986   0.2305   0.9942   1
1149.706   1.1015   0.2360   0.9942   1
1149.766   0.8404   0.2209   0.9942   1
1149.826   0.8909   0.2239   0.9942   1
1149.886   0.9237   0.2248   0.9942   1
1149.946   1.0780   0.2342   0.9942   1
1150.005   1.1284   0.2373   0.9942   1
1150.065   0.8176   0.2181   0.9941   1
1150.125   0.7142   0.2117   0.9941   1
1150.185   0.9885   0.2285   0.9941   1
1150.245   0.8675   0.2207   0.9941   1
1150.304   0.8833   0.2217   0.9941   1
1150.364   0.7620   0.2141   0.9941   1
1150.424   1.0156   0.2293   0.9941   1
1150.484   0.9977   0.2283   0.9941   1
1150.544   0.8087   0.2162   0.9941   1
1150.604   1.2202   0.2403   0.9940   1
1150.663   1.1863   0.2386   0.9940   1
1150.723   0.8090   0.2159   0.9940   1
1150.783   0.7400   0.2121   0.9940   1
1150.843   0.8081   0.2159   0.9940   1
1150.903   0.7215   0.2101   0.9940   1
1150.963   0.9601   0.2249   0.9940   1
1151.022   0.8568   0.2186   0.9940   1
1151.082   0.9413   0.2226   0.9940   1
1151.142   0.8390   0.2171   0.9940   1
1151.202   0.7541   0.2108   0.9939   1
1151.262   0.9758   0.2254   0.9939   1
1151.321   0.9609   0.2243   0.9939   1
1151.381   1.0451   0.2294   0.9939   1
1151.441   0.8412   0.2167   0.9939   1
1151.501   0.8222   0.2157   0.9939   1
1151.561   0.8871   0.2217   0.9939   1
1151.620   0.7232   0.2119   0.9939   1
1151.680   0.7425   0.2134   0.9939   1
1151.740   0.9754   0.2278   0.9938   1
1151.800   1.0873   0.2358   0.9938   1
1151.860   0.9252   0.2266   0.9938   1
1151.920   0.8980   0.2265   0.9938   1
1151.979   0.9253   0.2251   0.9938   1
1152.039   0.9627   0.2255   0.9938   1
1152.099   0.6440   0.2050   0.9938   1
1152.159   0.8922   0.2215   0.9938   1
1152.219   0.8877   0.2191   0.9937   1
1152.279   0.8988   0.2186   0.9937   1
1152.338   0.7430   0.2079   0.9937   1
1152.398   1.1432   0.2316   0.9937   1
1152.458   0.9253   0.2189   0.9937   1
1152.518   0.7582   0.2093   0.9937   1
1152.578   0.7733   0.2097   0.9937   1
1152.637   0.6410   0.2015   0.9937   1
1152.697   0.5238   0.1933   0.9937   1
1152.757   0.4731   0.1897   0.9936   1
1152.817   0.5067   0.1915   0.9936   1
1152.877   0.5230   0.1922   0.9936   1
1152.937   0.6223   0.1996   0.9936   1
1152.996   0.7368   0.2064   0.9936   1
1153.056   0.6874   0.2030   0.9936   1
1153.116   0.7880   0.2106   0.9936   1
1153.176   0.7874   0.2102   0.9936   1
1153.236   0.8037   0.2100   0.9935   1
1153.296   0.9660   0.2204   0.9935   1
1153.355   0.7843   0.2089   0.9935   1
1153.415   0.8329   0.2114   0.9935   1
1153.475   1.0136   0.2221   0.9935   1
1153.535   1.1937   0.2319   0.9935   1
1153.595   0.8808   0.2140   0.9935   1
1153.654   0.9622   0.2184   0.9935   1
1153.714   1.1741   0.2300   0.9934   1
1153.774   0.9445   0.2174   0.9934   1
1153.834   1.0586   0.2240   0.9934   1
1153.894   0.7797   0.2072   0.9934   1
1153.953   0.9112   0.2155   0.9934   1
1154.013   0.9427   0.2174   0.9934   1
1154.073   0.7617   0.2053   0.9934   1
1154.133   0.8740   0.2128   0.9934   1
1154.193   0.9386   0.2163   0.9933   1
1154.253   1.1322   0.2264   0.9933   1
1154.312   0.6595   0.1985   0.9933   1
1154.372   0.8856   0.2128   0.9933   1
1154.432   0.9007   0.2129   0.9933   1
1154.492   0.9163   0.2131   0.9933   1
1154.552   0.7530   0.2041   0.9933   1
1154.612   0.5423   0.1902   0.9933   1
1154.671   0.3803   0.1770   0.9932   1
1154.731   0.6124   0.1951   0.9932   1
1154.791   0.4606   0.1856   0.9932   1
1154.851   0.3685   0.1790   0.9932   1
1154.911   0.6068   0.1964   0.9932   1
1154.970   0.4992   0.1882   0.9932   1
1155.030   0.4137   0.1817   0.9932   1
1155.090   0.6677   0.2003   0.9932   1
1155.150   0.6504   0.1989   0.9931   1
1155.210   0.6671   0.1986   0.9931   1
1155.270   0.6041   0.1933   0.9931   1
1155.329   0.5223   0.1869   0.9931   1
1155.389   0.6332   0.1952   0.9931   1
1155.449   0.7127   0.1989   0.9931   1
1155.509   0.9185   0.2121   0.9931   1
1155.569   0.6799   0.1975   0.9930   1
1155.628   0.8066   0.2054   0.9930   1
1155.688   0.6165   0.1931   0.9930   1
1155.748   0.7577   0.2014   0.9930   1
1155.808   0.6301   0.1929   0.9930   1
1155.868   0.7403   0.2005   0.9930   1
1155.928   0.6754   0.1960   0.9930   1
1155.987   0.6907   0.1972   0.9930   1
1156.047   0.5487   0.1873   0.9929   1
1156.107   0.7213   0.1989   0.9929   1
1156.167   0.7203   0.1987   0.9929   1
1156.227   0.9241   0.2104   0.9929   1
1156.286   0.8755   0.2080   0.9929   1
1156.346   0.8751   0.2074   0.9929   1
1156.406   0.8276   0.2048   0.9929   1
1156.466   0.7481   0.2001   0.9928   1
1156.526   0.8891   0.2080   0.9928   1
1156.586   0.8094   0.2036   0.9928   1
1156.645   0.9335   0.2102   0.9928   1
1156.705   0.6352   0.1930   0.9928   1
1156.765   0.8380   0.2038   0.9928   1
1156.825   0.9277   0.2111   0.9928   1
1156.885   0.7371   0.2004   0.9927   1
1156.944   0.5371   0.1881   0.9927   1
1157.004   0.7007   0.1986   0.9927   1
1157.064   0.6448   0.1942   0.9927   1
1157.124   0.8394   0.2069   0.9927   1
1157.184   0.8768   0.2092   0.9927   1
1157.244   0.6946   0.1973   0.9927   1
1157.303   0.7358   0.1996   0.9926   1
1157.363   0.6442   0.1916   0.9926   1
1157.423   0.8449   0.2042   0.9926   1
1157.483   0.6586   0.1923   0.9926   1
1157.543   0.8765   0.2060   0.9926   1
1157.603   1.0157   0.2138   0.9926   1
1157.662   0.9525   0.2106   0.9925   1
1157.722   0.8743   0.2056   0.9925   1
1157.782   0.7964   0.2008   0.9925   1
1157.842   0.7184   0.1953   0.9925   1
1157.902   0.8276   0.2018   0.9925   1
1157.961   0.9198   0.2071   0.9925   1
1158.021   0.7467   0.1829   0.9925   1
1158.081   0.8709   0.2050   0.9924   1
1158.141   0.7779   0.1988   0.9924   1
1158.201   0.6542   0.1915   0.9924   1
1158.260   1.0544   0.2147   0.9924   1
1158.320   0.7469   0.1968   0.9924   1
1158.380   1.1168   0.2181   0.9924   1
1158.440   0.9777   0.2106   0.9924   1
1158.500   0.5925   0.1863   0.9923   1
1158.560   0.8074   0.2003   0.9923   1
1158.620   1.1445   0.2185   0.9923   1
1158.679   0.7447   0.1957   0.9923   1
1158.739   0.9589   0.2091   0.9923   1
1158.799   0.8651   0.2032   0.9923   1
1158.859   1.0324   0.2130   0.9922   1
1158.919   0.9093   0.2059   0.9922   1
1158.978   0.7871   0.1977   0.9922   1
1159.038   0.6797   0.1920   0.9922   1
1159.098   0.8324   0.2003   0.9922   1
1159.158   0.6789   0.1908   0.9922   1
1159.218   0.9064   0.2049   0.9921   1
1159.277   0.7833   0.1981   0.9921   1
1159.337   0.5397   0.1816   0.9921   1
1159.397   0.7680   0.1965   0.9921   1
1159.457   0.5382   0.1820   0.9921   1
1159.517   0.9327   0.2065   0.9921   1
1159.577   0.6891   0.1915   0.9920   1
1159.636   0.7652   0.1957   0.9920   1
1159.696   0.6889   0.1913   0.9920   1
1159.756   0.7042   0.1914   0.9920   1
1159.816   0.5375   0.1817   0.9920   1
1159.876   0.5076   0.1797   0.9920   1
1159.936   0.6102   0.1858   0.9919   1
1159.995   0.5299   0.1821   0.9919   1
1160.055   0.6160   0.1889   0.9919   1
1160.115   0.9783   0.2106   0.9919   1
1160.175   0.7194   0.1948   0.9919   1
1160.235   0.9220   0.2086   0.9919   1
1160.294   0.6135   0.1904   0.9918   1
1160.354   0.5736   0.1879   0.9918   1
1160.414   0.8203   0.2009   0.9918   1
1160.474   1.0570   0.2156   0.9918   1
1160.534   0.9812   0.2107   0.9918   1
1160.594   0.9420   0.2086   0.9918   1
1160.653   0.7922   0.1988   0.9917   1
1160.713   0.9156   0.2047   0.9917   1
1160.773   0.9873   0.2078   0.9917   1
1160.833   0.8660   0.2007   0.9917   1
1160.893   0.9101   0.2035   0.9917   1
1160.952   0.9700   0.2068   0.9917   1
1161.012   0.8944   0.2025   0.9916   1
1161.072   0.8492   0.1986   0.9916   1
1161.132   0.8491   0.1996   0.9916   1
1161.192   0.7295   0.1923   0.9916   1
1161.252   0.8632   0.2001   0.9916   1
1161.311   0.5479   0.1807   0.9915   1
1161.371   0.8762   0.1998   0.9915   1
1161.431   0.8589   0.2001   0.9915   1
1161.491   0.8579   0.1998   0.9915   1
1161.551   0.7388   0.1925   0.9915   1
1161.610   0.8572   0.1996   0.9915   1
1161.670   1.1709   0.2161   0.9914   1
1161.730   0.7538   0.1934   0.9914   1
1161.790   0.8897   0.2012   0.9914   1
1161.850   0.9037   0.2013   0.9914   1
1161.910   0.7100   0.1896   0.9914   1
1161.969   1.0229   0.2092   0.9913   1
1162.029   0.9330   0.2041   0.9913   1
1162.089   0.7835   0.1949   0.9913   1
1162.149   0.8421   0.1986   0.9913   1
1162.209   1.0214   0.2081   0.9913   1
1162.268   0.9912   0.2063   0.9912   1
1162.328   0.9018   0.2010   0.9912   1
1162.388   0.7529   0.1932   0.9912   1
1162.448   0.9753   0.2058   0.9912   1
1162.508   1.1234   0.2142   0.9912   1
1162.568   1.0046   0.2072   0.9911   1
1162.627   0.9149   0.2024   0.9911   1
1162.687   0.8408   0.1981   0.9911   1
1162.747   0.7514   0.1931   0.9911   1
1162.807   0.8106   0.1958   0.9911   1
1162.867   0.8847   0.2002   0.9911   1
1162.927   0.6920   0.1889   0.9910   1
1162.986   0.7645   0.1929   0.9910   1
1163.046   0.9121   0.2015   0.9910   1
1163.106   0.7934   0.1944   0.9910   1
1163.166   0.9530   0.2044   0.9910   1
1163.226   0.7981   0.1970   0.9909   1
1163.285   0.6937   0.1907   0.9909   1
1163.345   0.7370   0.1927   0.9909   1
1163.405   0.7542   0.1941   0.9909   1
1163.465   0.7415   0.1935   0.9908   1
1163.525   0.8205   0.1985   0.9908   1
1163.584   1.1956   0.2194   0.9908   1
1163.644   0.8748   0.2001   0.9908   1
1163.704   0.7199   0.1898   0.9908   1
1163.764   0.6579   0.1858   0.9907   1
1163.824   0.9222   0.2015   0.9907   1
1163.884   1.0403   0.2076   0.9907   1
1163.943   0.9517   0.2025   0.9907   1
1164.003   0.9805   0.2053   0.9907   1
1164.063   0.7448   0.1903   0.9906   1
1164.123   0.8180   0.1952   0.9906   1
1164.183   0.8469   0.1966   0.9906   1
1164.243   1.0522   0.2083   0.9906   1
1164.302   0.8165   0.1946   0.9906   1
1164.362   0.6839   0.1867   0.9905   1
1164.422   0.8724   0.1981   0.9905   1
1164.482   0.8718   0.1975   0.9905   1
1164.542   0.9291   0.2004   0.9905   1
1164.601   0.8414   0.1958   0.9904   1
1164.661   0.9888   0.2040   0.9904   1
1164.721   0.6818   0.1864   0.9904   1
1164.781   0.9885   0.2044   0.9904   1
1164.841   0.8418   0.1960   0.9904   1
1164.901   0.8703   0.1973   0.9903   1
1164.960   0.8244   0.1947   0.9903   1
1165.020   1.0866   0.2090   0.9903   1
1165.080   0.7951   0.1923   0.9903   1
1165.140   0.7331   0.1884   0.9903   1
1165.200   0.9234   0.1997   0.9902   1
1165.260   0.8765   0.1980   0.9902   0
1165.319   0.6923   0.1873   0.9902   0
1165.379   0.9687   0.2052   0.9902   0
1165.439   0.8413   0.1965   0.9901   0
1165.499   0.9649   0.2041   0.9901   0
1165.559   1.0633   0.2101   0.9901   0
1165.618   0.8031   0.1953   0.9901   0
1165.678   0.8994   0.1998   0.9900   0
1165.738   0.9883   0.2039   0.9900   0
1165.798   0.8192   0.1929   0.9900   0
1165.858   1.0762   0.2077   0.9900   0
1165.917   0.7580   0.1894   0.9900   0
1165.977   1.0918   0.2080   0.9899   0
1166.037   0.9464   0.2001   0.9899   0
1166.097   1.0471   0.2054   0.9899   0
1166.157   0.9608   0.2011   0.9899   0
1166.217   0.9321   0.1989   0.9898   0
1166.276   0.9606   0.2006   0.9898   0
1166.336   0.7582   0.1886   0.9898   0
1166.396   0.8880   0.1965   0.9898   0
1166.456   0.8888   0.1960   0.9897   0
1166.516   0.7878   0.1908   0.9897   0
1166.576   0.7728   0.1898   0.9897   0
1166.635   0.9880   0.2015   0.9897   0
1166.695   0.6853   0.1846   0.9896   0
1166.755   0.8289   0.1931   0.9896   0
1166.815   0.7859   0.1903   0.9896   0
1166.875   0.9138   0.1980   0.9896   0
1166.934   0.5401   0.1743   0.9895   0
1166.994   1.0982   0.2072   0.9895   0
1167.054   0.8115   0.1910   0.9895   0
1167.114   0.6390   0.1806   0.9895   0
1167.174   0.7957   0.1906   0.9894   0
1167.234   0.6666   0.1823   0.9894   0
1167.293   0.7942   0.1899   0.9894   0
1167.353   0.7656   0.1885   0.9894   0
1167.413   0.7932   0.1898   0.9893   0
1167.473   0.6502   0.1809   0.9893   0
1167.533   0.8205   0.1911   0.9893   0
1167.593   0.7365   0.1863   0.9893   0
1167.652   0.8074   0.1896   0.9892   0
1167.712   0.6360   0.1798   0.9892   0
1167.772   0.8202   0.1907   0.9892   0
1167.832   0.8339   0.1914   0.9892   0
1167.892   0.8758   0.1940   0.9891   0
1167.951   0.6479   0.1809   0.9891   0
1168.011   0.5337   0.1734   0.9891   0
1168.071   0.5481   0.1728   0.9891   0
1168.131   0.7316   0.1853   0.9890   0
1168.191   0.6185   0.1778   0.9890   0
1168.250   0.5750   0.1745   0.9890   0
1168.310   0.6733   0.1815   0.9889   0
1168.370   0.7574   0.1878   0.9889   0
1168.430   0.5705   0.1767   0.9889   0
1168.490   0.6463   0.1817   0.9889   0
1168.550   0.7020   0.1854   0.9888   0
1168.609   0.6467   0.1828   0.9888   0
1168.669   0.7235   0.1879   0.9888   0
1168.729   0.5909   0.1807   0.9888   0
1168.789   0.6340   0.1831   0.9887   0
1168.849   0.8353   0.1953   0.9887   0
1168.909   0.7234   0.1868   0.9887   0
1168.968   0.7805   0.1891   0.9886   0
1169.028   0.5995   0.1780   0.9886   0
1169.088   0.7350   0.1863   0.9886   0
1169.148   0.7336   0.1840   0.9886   0
1169.208   0.6959   0.1819   0.9885   0
1169.267   0.5977   0.1759   0.9885   0
1169.327   0.8089   0.1883   0.9885   0
1169.387   0.5721   0.1746   0.9884   0
1169.447   0.6718   0.1803   0.9884   0
1169.507   0.6996   0.1828   0.9884   0
1169.567   0.6147   0.1766   0.9884   0
1169.626   0.7124   0.1833   0.9883   0
1169.686   0.7812   0.1868   0.9883   0
1169.746   0.7388   0.1839   0.9883   0
1169.806   0.7090   0.1824   0.9882   0
1169.866   0.6104   0.1760   0.9882   0
1169.925   0.8059   0.1879   0.9882   0
1169.985   1.0291   0.1997   0.9881   0
1170.045   0.7643   0.1853   0.9881   0
1170.105   0.7359   0.1833   0.9881   0
1170.165   0.8615   0.1910   0.9881   0
1170.225   0.7768   0.1857   0.9880   0
1170.284   0.6646   0.1789   0.9880   0
1170.344   0.7754   0.1860   0.9880   0
1170.404   0.6216   0.1765   0.9879   0
1170.464   0.6758   0.1793   0.9879   0
1170.524   0.6624   0.1781   0.9879   0
1170.583   0.6895   0.1800   0.9878   0
1170.643   0.5914   0.1732   0.9878   0
1170.703   0.5627   0.1726   0.9878   0
1170.763   0.4517   0.1646   0.9877   0
1170.823   0.5208   0.1693   0.9877   0
1170.883   0.5761   0.1727   0.9877   0
1170.942   0.4224   0.1621   0.9876   0
1171.002   0.5055   0.1675   0.9876   0
1171.062   0.5874   0.1729   0.9876   0
1171.122   0.4498   0.1637   0.9875   0
1171.182   0.5049   0.1680   0.9875   0
1171.241   0.6156   0.1755   0.9875   0
1171.301   0.6151   0.1750   0.9875   0
1171.361   0.4361   0.1627   0.9874   0
1171.421   0.4778   0.1656   0.9874   0
1171.481   0.5331   0.1694   0.9874   0
1171.541   0.5809   0.1729   0.9873   0
1171.600   0.4954   0.1688   0.9873   0
1171.660   0.6774   0.1804   0.9873   0
1171.720   0.6379   0.1788   0.9872   0
1171.780   0.6075   0.1770   0.9872   0
1171.840   0.5772   0.1748   0.9872   0
1171.900   0.3285   0.1560   0.9871   0
1171.959   0.5757   0.1744   0.9871   0
1172.019   0.5099   0.1690   0.9870   0
1172.079   0.4299   0.1628   0.9870   0
1172.139   0.5626   0.1721   0.9870   0
1172.199   0.3953   0.1603   0.9869   0
1172.258   0.5055   0.1676   0.9869   0
1172.318   0.6291   0.1760   0.9869   0
1172.378   0.4631   0.1647   0.9868   0
1172.438   0.4755   0.1655   0.9868   0
1172.498   0.4334   0.1627   0.9868   0
1172.557   0.5570   0.1707   0.9867   0
1172.617   0.4606   0.1647   0.9867   0
1172.677   0.6809   0.1788   0.9867   0
1172.737   0.5712   0.1718   0.9866   0
1172.797   0.5167   0.1683   0.9866   0
1172.857   0.5442   0.1698   0.9866   0
1172.917   0.4474   0.1637   0.9865   0
1172.976   0.5171   0.1687   0.9865   0
1173.036   0.4485   0.1632   0.9864   0
1173.096   0.5170   0.1688   0.9864   0
1173.156   0.4608   0.1643   0.9864   0
1173.216   0.3232   0.1547   0.9863   0
1173.275   0.3785   0.1585   0.9863   0
1173.335   0.5852   0.1730   0.9863   0
1173.395   0.6130   0.1744   0.9862   0
1173.455   0.5717   0.1717   0.9862   0
1173.515   0.4195   0.1618   0.9861   0
1173.574   0.4205   0.1619   0.9861   0
1173.634   0.5225   0.1694   0.9861   0
1173.694   0.5932   0.1751   0.9860   0
1173.754   0.4850   0.1687   0.9860   0
1173.814   0.4592   0.1662   0.9860   0
1173.874   0.5597   0.1729   0.9859   0
1173.933   0.4707   0.1675   0.9859   0
1173.993   0.5279   0.1710   0.9858   0
1174.053   0.4704   0.1667   0.9858   0
1174.113   0.5085   0.1695   0.9858   0
1174.173   0.3712   0.1587   0.9857   0
1174.233   0.3410   0.1560   0.9857   0
1174.292   0.5179   0.1692   0.9856   0
1174.352   0.3672   0.1583   0.9856   0
1174.412   0.4084   0.1608   0.9856   0
1174.472   0.3945   0.1606   0.9855   0
1174.532   0.4771   0.1657   0.9855   0
1174.591   0.5620   0.1593   0.9854   0
1174.651   0.5873   0.1733   0.9854   0
1174.711   0.5605   0.1718   0.9854   0
1174.771   0.4493   0.1643   0.9853   0
1174.831   0.4770   0.1665   0.9853   0
1174.891   0.7384   0.1830   0.9852   0
1174.950   0.3803   0.1592   0.9852   0
1175.010   0.6034   0.1749   0.9851   0
1175.070   0.4926   0.1676   0.9851   0
1175.130   0.3952   0.1607   0.9851   0
1175.190   0.4091   0.1619   0.9850   0
1175.249   0.4508   0.1648   0.9850   0
1175.309   0.4370   0.1636   0.9849   0
1175.369   0.4645   0.1656   0.9849   0
1175.429   0.4925   0.1671   0.9848   0
1175.489   0.4659   0.1653   0.9848   0
1175.549   0.5348   0.1706   0.9848   0
1175.608   0.6311   0.1765   0.9847   0
1175.668   0.5205   0.1693   0.9847   0
1175.728   0.3680   0.1587   0.9846   0
1175.788   0.4503   0.1646   0.9846   0
1175.848   0.4788   0.1670   0.9845   0
1175.907   0.3824   0.1600   0.9845   0
1175.967   0.5768   0.1736   0.9844   0
1176.027   0.4250   0.1627   0.9844   0
1176.087   0.4393   0.1642   0.9844   0
1176.147   0.4954   0.1678   0.9843   0
1176.207   0.2878   0.1530   0.9843   0
1176.266   0.5511   0.1715   0.9842   0
1176.326   0.3010   0.1544   0.9842   0
1176.386   0.2736   0.1523   0.9841   0
1176.446   0.4127   0.1630   0.9841   0
1176.506   0.4395   0.1643   0.9840   0
1176.565   0.4258   0.1639   0.9840   0
1176.625   0.4255   0.1637   0.9839   0
1176.685   0.3444   0.1576   0.9839   0
1176.745   0.3231   0.1571   0.9838   0
1176.805   0.3584   0.1602   0.9838   0
1176.865   0.2745   0.1544   0.9837   0
1176.924   0.3195   0.1577   0.9837   0
1176.984   0.2762   0.1542   0.9836   0
1177.044   0.3437   0.1604   0.9836   0
1177.104   0.4298   0.1686   0.9836   0
1177.164   0.2591   0.1541   0.9835   0
1177.224   0.2354   0.1515   0.9835   0
1177.283   0.3636   0.1613   0.9834   0
1177.343   0.2856   0.1553   0.9834   0
1177.403   0.2271   0.1503   0.9833   0
1177.463   0.2534   0.1523   0.9833   0
1177.523   0.3647   0.1605   0.9832   0
1177.582   0.4141   0.1632   0.9832   0
1177.642   0.4276   0.1645   0.9831   0
1177.702   0.3713   0.1606   0.9830   0
1177.762   0.5248   0.1716   0.9830   0
1177.822   0.4966   0.1701   0.9829   0
1177.881   0.3852   0.1620   0.9829   0
1177.941   0.4004   0.1627   0.9828   0
1178.001   0.4560   0.1668   0.9828   0
1178.061   0.4845   0.1687   0.9827   0
1178.121   0.4282   0.1651   0.9827   0
1178.181   0.5400   0.1726   0.9826   0
1178.240   0.5680   0.1746   0.9826   0
1178.300   0.4293   0.1651   0.9825   0
1178.360   0.4586   0.1677   0.9825   0
1178.420   0.5438   0.1733   0.9824   0
1178.480   0.5296   0.1724   0.9824   0
1178.540   0.6001   0.1775   0.9823   0
1178.599   0.6835   0.1828   0.9823   0
1178.659   0.6274   0.1785   0.9822   0
1178.719   0.6274   0.1798   0.9821   0
1178.779   0.6289   0.1796   0.9821   0
1178.839   0.7429   0.1864   0.9820   0
1178.898   0.7991   0.1894   0.9820   0
1178.958   0.8974   0.1954   0.9819   0
1179.018   0.9824   0.1999   0.9819   0
1179.078   1.1512   0.2090   0.9818   0
1179.138   0.8270   0.1913   0.9817   0
1179.198   0.9819   0.2000   0.9817   0
1179.257   0.9945   0.2003   0.9816   1
1179.317   0.8101   0.1901   0.9816   1
1179.377   1.1075   0.2066   0.9815   1
1179.437   1.0907   0.2048   0.9815   1
1179.497   0.9630   0.1985   0.9814   1
1179.557   1.0459   0.2020   0.9813   1
1179.616   0.8496   0.1920   0.9813   1
1179.676   0.7376   0.1851   0.9812   1
1179.736   0.9893   0.1996   0.9812   1
1179.796   0.9462   0.1970   0.9811   1
1179.856   0.8760   0.1931   0.9810   1
1179.915   1.1717   0.2091   0.9810   1
1179.975   0.9683   0.1990   0.9809   1
1180.035   1.0484   0.2052   0.9809   1
1180.095   0.9538   0.2005   0.9808   1
1180.155   0.9778   0.2012   0.9807   1
1180.214   1.2907   0.2171   0.9807   1
1180.274   1.1727   0.2109   0.9806   1
1180.334   1.0366   0.2033   0.9805   1
1180.394   1.0464   0.2042   0.9805   1
1180.454   0.9618   0.1984   0.9804   1
1180.514   0.9860   0.1983   0.9803   1
1180.573   1.0247   0.2006   0.9803   1
1180.633   1.0516   0.2019   0.9802   1
1180.693   0.9805   0.1974   0.9802   1
1180.753   0.7982   0.1876   0.9801   1
1180.813   0.9361   0.1948   0.9800   1
1180.873   0.8102   0.1881   0.9800   1
1180.932   0.9487   0.1954   0.9799   1
1180.992   0.9625   0.1959   0.9798   1
1181.052   0.8093   0.1881   0.9798   1
1181.112   0.9476   0.1960   0.9797   1
1181.172   0.9197   0.1935   0.9796   1
1181.231   1.0289   0.1987   0.9796   1
1181.291   0.7390   0.1837   0.9795   1
1181.351   0.9471   0.1949   0.9794   1
1181.411   0.9757   0.1969   0.9794   1
1181.471   0.9734   0.1966   0.9793   1
1181.531   0.9303   0.1945   0.9792   1
1181.590   0.9161   0.1926   0.9791   1
1181.650   0.8882   0.1915   0.9791   1
1181.710   0.8052   0.1867   0.9790   1
1181.770   1.0672   0.2011   0.9789   1
1181.830   1.1218   0.2041   0.9789   1
1181.889   0.9693   0.1958   0.9788   1
1181.949   1.0655   0.2004   0.9787   1
1182.009   1.0021   0.1974   0.9786   1
1182.069   0.9800   0.1967   0.9786   1
1182.129   0.7713   0.1868   0.9785   1
1182.189   0.8920   0.1938   0.9784   1
1182.248   1.1748   0.2086   0.9783   1
1182.308   0.8079   0.1885   0.9783   1
1182.368   0.7896   0.1869   0.9782   1
1182.428   0.9576   0.1964   0.9781   1
1182.488   0.7956   0.1870   0.9780   1
1182.547   1.0370   0.1990   0.9780   1
1182.607   0.7973   0.1850   0.9779   1
1182.667   0.8913   0.1903   0.9778   1
1182.727   0.7818   0.1839   0.9777   1
1182.787   0.8636   0.1877   0.9777   1
1182.847   0.8356   0.1870   0.9776   1
1182.906   0.7106   0.1787   0.9775   1
1182.966   0.8735   0.1881   0.9774   1
1183.026   0.9136   0.1904   0.9774   0
1183.086   0.9949   0.1940   0.9773   0
1183.146   0.7908   0.1836   0.9772   0
1183.205   0.7770   0.1827   0.9771   0
1183.265   0.8719   0.1879   0.9770   0
1183.325   1.1821   0.2044   0.9770   0
1183.385   0.7628   0.1818   0.9769   0
1183.445   0.9242   0.1906   0.9768   0
1183.505   0.8978   0.1891   0.9767   0
1183.564   0.7220   0.1788   0.9766   0
1183.624   0.8688   0.1874   0.9765   0
1183.684   0.7332   0.1788   0.9765   0
1183.744   0.6919   0.1770   0.9764   0
1183.804   0.8128   0.1833   0.9763   0
1183.864   0.7740   0.1817   0.9762   0
1183.923   0.7179   0.1779   0.9761   0
1183.983   0.7436   0.1792   0.9760   0
1184.043   0.8238   0.1841   0.9759   0
1184.103   0.9025   0.1879   0.9759   0
1184.163   0.9142   0.1878   0.9758   0
1184.222   0.9538   0.1905   0.9757   0
1184.282   0.6477   0.1732   0.9756   0
1184.342   0.8317   0.1835   0.9755   0
1184.402   0.7902   0.1810   0.9754   0
1184.462   0.9097   0.1876   0.9753   0
1184.521   0.6958   0.1752   0.9752   0
1184.581   0.7613   0.1788   0.9751   0
1184.641   0.7475   0.1783   0.9751   0
1184.701   0.8534   0.1836   0.9750   0
1184.761   0.7861   0.1803   0.9749   0
1184.821   0.6402   0.1715   0.9748   0
1184.880   0.6128   0.1699   0.9747   0
1184.940   0.7307   0.1759   0.9746   0
1185.000   0.5462   0.1652   0.9745   0
1185.060   0.4277   0.1570   0.9744   0
1185.120   0.6949   0.1742   0.9743   0
1185.180   0.6162   0.1701   0.9742   0
1185.239   0.6281   0.1719   0.9741   0
1185.299   0.6717   0.1752   0.9740   0
1185.359   0.6243   0.1712   0.9739   0
1185.419   0.3906   0.1545   0.9738   0
1185.479   0.5825   0.1687   0.9737   0
1185.538   0.6034   0.1707   0.9736   0
1185.598   0.6155   0.1713   0.9735   0
1185.658   0.8634   0.1858   0.9734   0
1185.718   0.8068   0.1817   0.9733   0
1185.778   0.5102   0.1619   0.9732   0
1185.838   0.7524   0.1778   0.9731   0
1185.897   0.4994   0.1609   0.9730   0
1185.957   0.7302   0.1742   0.9729   0
1186.017   0.7295   0.1738   0.9728   0
1186.077   0.6635   0.1698   0.9727   0
1186.137   0.6637   0.1699   0.9726   0
1186.197   0.5998   0.1659   0.9725   0
1186.256   0.6771   0.1698   0.9724   0
1186.316   0.5989   0.1652   0.9723   0
1186.376   0.5211   0.1604   0.9722   0
1186.436   0.5207   0.1601   0.9721   0
1186.496   0.4686   0.1566   0.9719   0
1186.555   0.4795   0.1570   0.9718   0
1186.615   0.5051   0.1584   0.9717   0
1186.675   0.5560   0.1624   0.9716   0
1186.735   0.5937   0.1639   0.9715   0
1186.795   0.5161   0.1592   0.9714   0
1186.854   0.5794   0.1630   0.9713   0
1186.914   0.7578   0.1734   0.9712   0
1186.974   0.5787   0.1629   0.9711   0
1187.034   0.5904   0.1634   0.9709   0
1187.094   0.8212   0.1771   0.9708   0
1187.154   0.8339   0.1780   0.9707   0
1187.213   0.6416   0.1662   0.9706   0
1187.273   0.7300   0.1715   0.9705   0
1187.333   0.7044   0.1696   0.9704   0
1187.393   0.6912   0.1689   0.9702   0
1187.453   0.8812   0.1797   0.9701   0
1187.513   0.7547   0.1728   0.9700   0
1187.572   0.8564   0.1784   0.9699   0
1187.632   0.8176   0.1762   0.9698   0
1187.692   0.7033   0.1696   0.9696   0
1187.752   0.8548   0.1781   0.9695   0
1187.812   0.7158   0.1705   0.9694   0
1187.871   0.6148   0.1645   0.9693   0
1187.931   0.7027   0.1680   0.9691   0
1187.991   0.7525   0.1718   0.9690   0
1188.051   0.7643   0.1718   0.9689   0
1188.111   0.6373   0.1651   0.9688   0
1188.171   0.6003   0.1619   0.9686   0
1188.230   0.6370   0.1644   0.9685   0
1188.290   0.6363   0.1644   0.9684   0
1188.350   0.5728   0.1604   0.9682   0
1188.410   0.5872   0.1624   0.9681   0
1188.470   0.8713   0.1795   0.9680   0
1188.529   0.6379   0.1661   0.9678   0
1188.589   0.6510   0.1666   0.9677   0
1188.649   0.8451   0.1784   0.9676   0
1188.709   0.8972   0.1807   0.9674   0
1188.769   0.7808   0.1746   0.9673   0
1188.829   0.8343   0.1772   0.9672   0
1188.888   0.9025   0.1799   0.9670   0
1188.948   0.7551   0.1703   0.9669   0
1189.008   1.0425   0.1863   0.9667   0
1189.068   0.8169   0.1741   0.9666   0
1189.128   0.7536   0.1702   0.9665   0
1189.188   1.0767   0.1872   0.9663   0
1189.247   0.9141   0.1793   0.9662   0
1189.307   1.0497   0.1858   0.9660   0
1189.367   0.9379   0.1801   0.9659   0
1189.427   0.7254   0.1685   0.9657   0
1189.487   0.6876   0.1663   0.9656   0
1189.546   0.8625   0.1760   0.9654   0
1189.606   0.4897   0.1536   0.9653   0
1189.666   0.8010   0.1721   0.9651   0
1189.726   0.5885   0.1600   0.9650   0
1189.786   0.8114   0.1733   0.9648   0
1189.845   0.5757   0.1585   0.9647   0
1189.905   0.4640   0.1517   0.9645   0
1189.965   0.4635   0.1514   0.9644   0
1190.025   0.4510   0.1512   0.9642   0
1190.085   0.4260   0.1489   0.9640   0
1190.145   0.1915   0.1314   0.9639   0
1190.204   0.1421   0.1269   0.9637   0
1190.264   0.1292   0.1256   0.9636   0
1190.324   0.0918   0.1225   0.9634   0
1190.384   0.1032   0.1234   0.9632   0
1190.444   0.0538   0.1190   0.9631   0
1190.504   0.1687   0.1295   0.9629   0
1190.563   0.1571   0.1289   0.9627   0
1190.623   0.2094   0.1334   0.9626   0
1190.683   0.2993   0.1404   0.9624   0
1190.743   0.3100   0.1412   0.9622   0
1190.803   0.4014   0.1473   0.9621   0
1190.862   0.4401   0.1502   0.9619   0
1190.922   0.4722   0.1518   0.9617   0
1190.982   0.4599   0.1503   0.9616   0
1191.042   0.5413   0.1551   0.9614   0
1191.102   0.5409   0.1553   0.9612   0
1191.161   0.6084   0.1475   0.9610   0
1191.221   0.5034   0.1529   0.9608   0
1191.281   0.6629   0.1625   0.9607   0
1191.341   0.7234   0.1656   0.9605   0
1191.401   0.5523   0.1556   0.9603   0
1191.461   0.7595   0.1676   0.9601   0
1191.521   0.6490   0.1609   0.9599   0
1191.580   0.7466   0.1670   0.9597   0
1191.640   0.7697   0.1682   0.9596   0
1191.700   0.4773   0.1502   0.9594   0
1191.760   0.7945   0.1697   0.9592   0
1191.820   0.5388   0.1543   0.9590   0
1191.879   0.6231   0.1585   0.9588   0
1191.939   0.5859   0.1567   0.9586   0
1191.999   0.4156   0.1460   0.9584   0
1192.059   0.4401   0.1475   0.9582   0
1192.119   0.3186   0.1387   0.9580   0
1192.178   0.1735   0.1274   0.9578   0
1192.238   0.2219   0.1315   0.9576   0
1192.298   0.1252   0.1235   0.9574   0
1192.358   0.0657   0.1180   0.9572   0
1192.418   0.0415   0.1157   0.9570   0
1192.478   0.0059   0.1121   0.9568   0
1192.537   0.0067   0.1120   0.9566   0
1192.597   0.0194   0.1132   0.9564   0
1192.657   -0.0041   0.1107   0.9562   0
1192.717   0.0196   0.1130   0.9559   0
1192.777   0.0194   0.1130   0.9557   0
1192.837   0.0316   0.1141   0.9555   0
1192.896   0.0080   0.1117   0.9553   0
1192.956   0.0923   0.1196   0.9551   0
1193.016   0.0319   0.1138   0.9548   0
1193.076   0.0554   0.1162   0.9546   0
1193.136   0.0189   0.1126   0.9544   0
1193.195   0.0065   0.1114   0.9542   0
1193.255   0.0547   0.1159   0.9539   0
1193.315   0.0543   0.1159   0.9537   0
1193.375   0.0420   0.1144   0.9535   0
1193.435   0.0297   0.1133   0.9533   0
1193.495   0.1250   0.1220   0.9530   0
1193.554   0.1374   0.1233   0.9528   0
1193.614   0.2283   0.1309   0.9525   0
1193.674   0.2802   0.1355   0.9523   0
1193.734   0.3679   0.1424   0.9521   0
1193.794   0.5398   0.1545   0.9518   0
1193.853   0.5367   0.1552   0.9516   0
1193.913   0.3754   0.1441   0.9513   0
1193.973   0.5327   0.1547   0.9511   0
1194.033   0.6674   0.1623   0.9508   0
1194.093   0.5660   0.1552   0.9506   0
1194.153   0.4912   0.1502   0.9503   0
1194.212   0.5794   0.1560   0.9501   0
1194.272   0.5647   0.1557   0.9498   0
1194.332   0.4816   0.1480   0.9495   0
1194.392   0.5620   0.1529   0.9493   0
1194.452   0.7873   0.1659   0.9490   0
1194.511   0.6444   0.1579   0.9487   0
1194.571   0.6552   0.1581   0.9485   0
1194.631   0.7255   0.1624   0.9482   0
1194.691   0.6660   0.1590   0.9479   0
1194.751   0.7252   0.1621   0.9476   0
1194.811   0.6074   0.1549   0.9474   0
1194.870   0.6197   0.1562   0.9471   0
1194.930   0.4660   0.1467   0.9468   0
1194.990   0.5608   0.1524   0.9465   0
1195.050   0.4308   0.1440   0.9462   0
1195.110   0.2770   0.1328   0.9459   0
1195.169   0.2065   0.1274   0.9457   0
1195.229   0.0295   0.1117   0.9454   0
1195.289   0.1116   0.1194   0.9451   0
1195.349   0.0405   0.1127   0.9448   0
1195.409   0.0523   0.1136   0.9445   0
1195.469   0.0175   0.1103   0.9442   0
1195.528   0.0648   0.1149   0.9438   0
1195.588   0.0416   0.1125   0.9435   0
1195.648   0.1001   0.1179   0.9432   0
1195.708   0.0876   0.1166   0.9429   0
1195.768   0.1458   0.1216   0.9426   0
1195.828   0.1918   0.1250   0.9423   0
1195.887   0.4138   0.1419   0.9420   0
1195.947   0.3192   0.1354   0.9416   0
1196.007   0.4712   0.1453   0.9413   0
1196.067   0.6458   0.1565   0.9410   0
1196.127   0.4590   0.1447   0.9406   0
1196.186   0.4701   0.1454   0.9403   0
1196.246   0.6098   0.1541   0.9400   0
1196.306   0.5865   0.1523   0.9396   0
1196.366   0.5046   0.1474   0.9393   0
1196.426   0.5857   0.1519   0.9389   0
1196.485   0.7471   0.1609   0.9386   0
1196.545   0.7005   0.1588   0.9382   0
1196.605   0.7116   0.1597   0.9379   0
1196.665   0.8392   0.1664   0.9375   0
1196.725   0.7517   0.1616   0.9372   0
1196.785   0.8668   0.1688   0.9368   0
1196.844   0.7870   0.1651   0.9364   0
1196.904   0.9118   0.1729   0.9361   0
1196.964   0.7178   0.1611   0.9357   0
1197.024   0.8119   0.1654   0.9353   0
1197.084   0.5733   0.1527   0.9349   0
1197.144   0.7458   0.1628   0.9345   0
1197.203   0.8038   0.1664   0.9341   1
1197.263   0.8042   0.1645   0.9338   1
1197.323   0.8351   0.1656   0.9334   1
1197.383   0.8234   0.1647   0.9330   1
1197.443   0.6730   0.1567   0.9326   1
1197.502   1.0080   0.1741   0.9322   1
1197.562   0.8811   0.1676   0.9317   1
1197.622   0.7314   0.1593   0.9313   1
1197.682   0.9721   0.1716   0.9309   1
1197.742   0.7412   0.1598   0.9305   1
1197.802   0.8557   0.1657   0.9301   1
1197.861   0.7977   0.1629   0.9296   1
1197.921   0.9809   0.1723   0.9292   1
1197.981   0.8542   0.1659   0.9288   1
1198.041   0.7503   0.1601   0.9283   0
1198.101   0.9216   0.1690   0.9279   0
1198.161   0.6697   0.1552   0.9274   0
1198.220   0.7152   0.1577   0.9270   0
1198.280   0.5772   0.1497   0.9265   0
1198.340   0.7021   0.1573   0.9261   0
1198.400   0.7013   0.1573   0.9256   0
1198.460   0.5633   0.1485   0.9251   0
1198.519   0.7441   0.1589   0.9247   0
1198.579   0.6969   0.1565   0.9242   0
1198.639   0.6731   0.1550   0.9237   0
1198.699   0.5940   0.1501   0.9232   0
1198.759   0.5387   0.1463   0.9227   0
1198.818   0.6838   0.1565   0.9222   0
1198.878   0.6492   0.1549   0.9217   0
1198.938   0.5426   0.1490   0.9212   0
1198.998   0.6880   0.1583   0.9207   0
1199.058   0.5750   0.1499   0.9202   0
1199.118   0.6297   0.1539   0.9197   0
1199.177   0.5019   0.1460   0.9191   0
1199.237   0.4192   0.1405   0.9186   0
1199.297   0.5245   0.1469   0.9181   0
1199.357   0.2914   0.1303   0.9175   0
1199.417   0.3649   0.1349   0.9170   0
1199.477   0.2520   0.1265   0.9164   0
1199.536   0.2179   0.1238   0.9159   0
1199.596   0.2747   0.1281   0.9153   0
1199.656   0.3769   0.1358   0.9147   0
1199.716   0.4784   0.1416   0.9142   0
1199.776   0.4894   0.1425   0.9136   0
1199.835   0.5678   0.1477   0.9130   0
1199.895   0.3649   0.1347   0.9124   0
1199.955   0.6009   0.1501   0.9118   0
1200.015   0.3306   0.1322   0.9112   0
1200.075   0.3531   0.1338   0.9106   0
1200.135   0.2183   0.1232   0.9100   0
1200.194   0.1853   0.1210   0.9094   0
1200.254   0.2080   0.1226   0.9087   0
1200.314   0.2976   0.1294   0.9081   0
1200.374   0.3539   0.1337   0.9074   0
1200.434   0.3985   0.1365   0.9068   0
1200.494   0.2750   0.1276   0.9061   0
1200.553   0.3757   0.1350   0.9055   0
1200.613   0.2632   0.1269   0.9048   0
1200.673   0.2847   0.1281   0.9041   0
1200.733   0.1054   0.1137   0.9034   0
1200.793   0.2286   0.1239   0.9028   0
1200.852   0.2627   0.1264   0.9021   0
1200.912   0.2961   0.1289   0.9014   0
1200.972   0.3967   0.1357   0.9006   0
1201.032   0.4743   0.1411   0.8999   0
1201.092   0.4181   0.1373   0.8992   0
1201.151   0.4955   0.1422   0.8985   0
1201.211   0.4732   0.1411   0.8977   0
1201.271   0.3279   0.1307   0.8970   0
1201.331   0.3050   0.1291   0.8962   0
1201.391   0.2488   0.1249   0.8954   0
1201.451   0.2150   0.1220   0.8946   0
1201.510   0.2036   0.1211   0.8939   0
1201.570   0.0704   0.1099   0.8931   0
1201.630   0.0591   0.1089   0.8923   0
1201.690   0.0374   0.1068   0.8914   0
1201.750   0.0487   0.1077   0.8906   0
1201.810   0.0155   0.1046   0.8898   0
1201.869   0.0039   0.1034   0.8890   0
1201.929   -0.0073   0.1024   0.8881   0
1201.989   0.0280   0.1060   0.8872   0
1202.049   0.0750   0.1109   0.8864   0
1202.109   0.1327   0.1160   0.8855   0
1202.168   0.0736   0.1102   0.8846   0
1202.228   0.0982   0.1125   0.8837   0
1202.288   0.0662   0.1101   0.8828   0
1202.348   0.0186   0.1054   0.8819   0
1202.408   0.0312   0.1064   0.8809   0
1202.468   0.0533   0.1080   0.8800   0
1202.527   0.0183   0.1045   0.8790   0
1202.587   -0.0051   0.1023   0.8781   0
1202.647   -0.0046   0.1022   0.8771   0
1202.707   0.0065   0.1031   0.8761   0
1202.767   -0.0044   0.1019   0.8751   0
1202.826   0.0176   0.1040   0.8741   0
1202.886   0.0291   0.1050   0.8731   0
1202.946   0.0506   0.1070   0.8720   0
1203.006   0.0398   0.1060   0.8710   0
1203.066   0.0945   0.1111   0.8699   0
1203.126   0.0612   0.1078   0.8689   0
1203.185   0.2143   0.1212   0.8678   0
1203.245   0.2140   0.1206   0.8667   0
1203.305   0.3895   0.1337   0.8656   0
1203.365   0.3016   0.1271   0.8644   0
1203.425   0.3009   0.1272   0.8633   0
1203.484   0.4213   0.1355   0.8621   0
1203.544   0.4325   0.1361   0.8610   0
1203.604   0.4320   0.1362   0.8598   0
1203.664   0.3769   0.1326   0.8586   0
1203.724   0.4422   0.1368   0.8574   0
1203.784   0.3318   0.1290   0.8561   0
1203.843   0.4185   0.1351   0.8549   0
1203.903   0.3538   0.1307   0.8536   0
1203.963   0.3752   0.1324   0.8524   0
1204.023   0.5613   0.1445   0.8511   0
1204.083   0.4403   0.1362   0.8497   0
1204.142   0.4293   0.1357   0.8484   0
1204.202   0.3752   0.1322   0.8471   0
1204.262   0.5393   0.1428   0.8457   0
1204.322   0.4633   0.1379   0.8443   0
1204.382   0.4846   0.1394   0.8429   0
1204.442   0.4078   0.1344   0.8415   0
1204.501   0.4074   0.1342   0.8401   0
1204.561   0.5156   0.1410   0.8386   0
1204.621   0.3626   0.1309   0.8372   0
1204.681   0.5799   0.1452   0.8357   0
1204.741   0.4272   0.1353   0.8341   0
1204.801   0.4492   0.1369   0.8326   0
1204.860   0.4388   0.1357   0.8311   0
1204.920   0.4933   0.1394   0.8295   0
1204.980   0.5154   0.1411   0.8279   0
1205.040   0.5368   0.1423   0.8263   0
1205.100   0.5587   0.1436   0.8246   0
1205.159   0.5177   0.1410   0.8230   0
1205.219   0.5238   0.1425   0.8213   0
1205.279   0.5925   0.1470   0.8196   0
1205.339   0.4621   0.1390   0.8178   0
1205.399   0.5495   0.1440   0.8161   0
1205.458   0.4670   0.1390   0.8143   0
1205.518   0.4601   0.1389   0.8125   0
1205.578   0.4967   0.1410   0.8106   0
1205.638   0.3647   0.1320   0.8088   0
1205.698   0.3263   0.1285   0.8069   0
1205.758   0.3881   0.1326   0.8050   0
1205.818   0.2014   0.1185   0.8030   0
1205.877   0.2446   0.1221   0.8010   0
1205.937   0.1141   0.1112   0.7990   0
1205.997   0.0814   0.1084   0.7970   0
1206.057   0.0702   0.1075   0.7950   0
1206.117   0.0480   0.1054   0.7929   0
1206.176   0.1019   0.1104   0.7908   0
1206.236   0.0362   0.1043   0.7886   0
1206.296   0.0243   0.1034   0.7864   0
1206.356   -0.0079   0.1002   0.7842   0
1206.416   0.0348   0.1043   0.7819   0
1206.475   0.0023   0.1012   0.7797   0
1206.535   0.0247   0.1033   0.7773   0
1206.595   0.0033   0.1012   0.7750   0
1206.655   0.0248   0.1032   0.7726   0
1206.715   0.0038   0.1011   0.7702   0
1206.775   0.0685   0.1072   0.7677   0
1206.834   0.0905   0.1089   0.7652   0
1206.894   0.0690   0.1071   0.7627   0
1206.954   0.1562   0.1146   0.7601   0
1207.014   0.0695   0.1071   0.7575   0
1207.074   0.1668   0.1151   0.7548   0
1207.134   0.1879   0.1172   0.7521   0
1207.193   0.3058   0.1262   0.7494   0
1207.253   0.2639   0.1232   0.7466   0
1207.313   0.2847   0.1253   0.7437   0
1207.373   0.3587   0.1314   0.7408   0
1207.433   0.4010   0.1341   0.7379   0
1207.492   0.3094   0.1269   0.7349   0
1207.552   0.4063   0.1338   0.7319   0
1207.612   0.3775   0.1325   0.7289   0
1207.672   0.4338   0.1362   0.7257   0
1207.732   0.4207   0.1246   0.7226   0
1207.792   0.4968   0.1393   0.7193   0
1207.851   0.4019   0.1324   0.7161   0
1207.911   0.3681   0.1300   0.7127   0
1207.971   0.2819   0.1239   0.7093   0
1208.031   0.2168   0.1191   0.7059   0
1208.091   0.1524   0.1141   0.7024   0
1208.150   0.2067   0.1180   0.6988   0
1208.210   0.0676   0.1067   0.6952   0
1208.270   0.0790   0.1077   0.6915   0
1208.330   0.0579   0.1057   0.6878   0
1208.390   0.0800   0.1076   0.6840   0
1208.450   0.0045   0.1006   0.6801   0
1208.509   0.0266   0.1027   0.6762   0
1208.569   0.0162   0.1017   0.6722   0
1208.629   -0.0050   0.0995   0.6681   0
1208.689   0.0057   0.1006   0.6639   0
1208.749   0.0165   0.1016   0.6597   0
1208.808   0.0162   0.1016   0.6554   0
1208.868   0.0589   0.1056   0.6511   0
1208.928   0.1015   0.1095   0.6466   0
1208.988   0.0684   0.1064   0.6421   0
1209.048   0.1010   0.1092   0.6375   0
1209.108   0.1437   0.1130   0.6328   0
1209.167   0.1642   0.1149   0.6280   0
1209.227   0.4639   0.1358   0.6232   0
1209.287   0.3894   0.1312   0.6183   0
1209.347   0.5598   0.1423   0.6132   0
1209.407   0.5059   0.1386   0.6081   0
1209.466   0.4738   0.1371   0.6029   0
1209.526   0.4522   0.1350   0.5976   0
1209.586   0.5905   0.1440   0.5922   0
1209.646   0.5898   0.1438   0.5868   0
1209.706   0.5679   0.1422   0.5812   0
1209.766   0.5682   0.1418   0.5755   0
1209.825   0.4509   0.1345   0.5697   0
1209.885   0.4186   0.1327   0.5638   0
1209.945   0.5253   0.1394   0.5578   0
1210.005   0.5155   0.1386   0.5517   0
1210.065   0.3867   0.1310   0.5455   0
1210.125   0.5571   0.1415   0.5392   0
1210.184   0.5366   0.1406   0.5327   0
1210.244   0.6433   0.1464   0.5262   0
1210.304   0.5258   0.1395   0.5195   0
1210.364   0.4709   0.1369   0.5128   0
1210.424   0.5290   0.1408   0.5059   0
1210.483   0.4775   0.1384   0.4988   0
1210.543   0.5270   0.1413   0.4917   0
1210.603   0.5249   0.1410   0.4844   0
1210.663   0.4686   0.1380   0.4770   0
1210.723   0.6052   0.1479   0.4695   1
1210.782   0.4370   0.1361   0.4619   1
1210.842   0.3831   0.1327   0.4541   1
1210.902   0.3338   0.1289   0.4462   1
1210.962   0.4875   0.1388   0.4381   1
1211.022   0.4619   0.1369   0.4299   1
1211.082   0.3855   0.1312   0.4216   1
1211.141   0.3423   0.1272   0.4132   1
1211.201   0.4265   0.1327   0.4046   1
1211.261   0.3730   0.1293   0.3959   1
1211.321   0.2996   0.1243   0.3871   1
1211.381   0.2886   0.1233   0.3781   1
1211.441   0.3089   0.1248   0.3690   1
1211.500   0.2972   0.1237   0.3598   1
1211.560   0.3933   0.1308   0.3505   1
1211.620   0.4039   0.1308   0.3410   1
1211.680   0.2229   0.1180   0.3314   1
1211.740   0.2644   0.1212   0.3217   1
1211.799   0.3492   0.1273   0.3119   1
1211.859   0.2338   0.1190   0.3020   1
1211.919   0.2020   0.1168   0.2919   1
1211.979   0.2128   0.1171   0.2818   1
1212.039   0.1919   0.1158   0.2716   1
1212.099   0.2767   0.1220   0.2613   1
1212.158   0.2558   0.1207   0.2510   1
1212.218   0.2447   0.1196   0.2406   1
1212.278   0.2016   0.1165   0.2301   1
1212.338   0.1489   0.1120   0.2196   1
1212.398   0.1699   0.1140   0.2091   1
1212.458   0.1707   0.1139   0.1985   1
1212.517   0.1711   0.1139   0.1880   1
1212.577   0.2236   0.1179   0.1775   1
1212.637   0.2234   0.1181   0.1671   1
1212.697   0.1288   0.1101   0.1568   1
1212.757   0.0968   0.1076   0.1465   1
1212.816   0.0953   0.1075   0.1364   1
1212.876   0.0735   0.1054   0.1264   1
1212.936   0.1154   0.1093   0.1166   1
1212.996   0.1679   0.1132   0.1070   1
1213.056   0.1252   0.1099   0.0977   1
1213.115   0.0921   0.1069   0.0886   1
1213.175   0.1123   0.1088   0.0798   1
1213.235   0.0492   0.1033   0.0714   1
1213.295   0.0286   0.1016   0.0633   1
1213.355   0.0388   0.1022   0.0557   1
1213.415   0.0689   0.1052   0.0485   1
1213.474   0.0987   0.1075   0.0417   1
1213.534   0.0768   0.1057   0.0355   1
1213.594   0.0345   0.1023   0.0297   1
1213.654   0.0474   0.1036   0.0245   1
1213.714   0.0237   0.1018   0.0196   0
1213.774   0.0246   0.1019   0.0151   0
1213.833   0.0679   0.1058   0.0108   0
1213.893   0.0781   0.1065   0.0065   0
1213.953   0.0435   0.1038   0.0028   0
1214.013   0.0843   0.1067   0.0007   0
1214.073   0.0500   0.1036   0.0001   0
1214.132   0.0803   0.1056   0.0000   0
1214.192   0.1203   0.1088   0.0000   0
1214.252   0.1266   0.1097   0.0000   0
1214.312   0.1636   0.1121   0.0000   0
1214.372   0.1050   0.1075   -0.0000   0
1214.432   0.2589   0.1184   -0.0000   0
1214.491   0.3127   0.1207   -0.0000   0
1214.551   0.2882   0.1176   -0.0000   0
1214.611   0.4133   0.1254   -0.0000   0
1214.671   1.1679   0.1578   -0.0000   0
1214.731   5.8013   0.2881   -0.0000   0
1214.790   18.0659   0.4759   -0.0000   0
1214.850   37.4258   0.6663   -0.0000   0
1214.910   59.4203   0.8282   -0.0000   0
1214.970   83.6364   0.9743   -0.0000   0
1215.030   120.8194   1.1622   -0.0000   0
1215.090   152.5323   1.3007   -0.0000   0
1215.149   189.4439   1.4446   -0.0000   0
1215.209   227.5258   1.5789   -0.0000   0
1215.269   259.2980   1.6822   -0.0000   0
1215.329   284.1190   1.7585   -0.0000   0
1215.389   303.9131   1.8170   -0.0000   0
1215.448   307.9477   1.8283   -0.0000   0
1215.508   318.0469   1.8571   -0.0000   0
1215.568   315.8386   1.8504   -0.0000   0
1215.628   304.2911   1.8166   -0.0000   0
1215.688   297.6776   1.8067   -0.0000   0
1215.748   289.8146   1.8140   -0.0000   0
1215.807   262.4670   1.7291   -0.0000   0
1215.867   238.3278   1.6491   -0.0000   0
1215.927   207.9067   1.5422   -0.0000   0
1215.987   176.8922   1.4320   -0.0000   0
1216.047   139.5470   1.2775   -0.0000   0
1216.106   98.4943   1.0672   -0.0000   0
1216.166   67.5035   0.8808   -0.0000   0
1216.226   46.0347   0.7298   -0.0000   0
1216.286   27.1683   0.5706   -0.0000   0
1216.346   11.9517   0.3915   -0.0000   0
1216.406   2.6837   0.2077   -0.0000   0
1216.465   0.6559   0.1327   -0.0000   0
1216.525   0.2613   0.1132   -0.0000   0
1216.585   0.2859   0.1170   -0.0000   0
1216.645   0.2817   0.1173   0.0000   0
1216.705   0.1224   0.1071   -0.0000   0
1216.765   0.2178   0.1147   -0.0000   0
1216.824   0.1312   0.1081   -0.0000   0
1216.884   0.1244   0.1078   -0.0000   0
1216.944   0.2205   0.1148   0.0000   0
1217.004   0.0576   0.1027   -0.0000   0
1217.064   0.0697   0.1032   -0.0000   0
1217.123   0.0398   0.1008   -0.0000   0
1217.183   0.0509   0.1018   -0.0000   0
1217.243   0.0624   0.1028   -0.0000   0
1217.303   0.0129   0.0984   -0.0000   1
1217.363   0.0344   0.1003   -0.0000   1
1217.422   0.0448   0.1013   -0.0000   1
1217.482   0.0151   0.0986   -0.0000   1
1217.542   0.0474   0.1013   -0.0000   1
1217.602   0.0068   0.0976   -0.0000   1
1217.662   0.0590   0.1021   -0.0000   1
1217.722   0.0290   0.0994   -0.0000   1
1217.781   0.0285   0.0993   -0.0000   1
1217.841   -0.0025   0.0966   -0.0000   1
1217.901   0.0383   0.1003   -0.0000   1
1217.961   -0.0135   0.0956   -0.0000   1
1218.021   0.0274   0.0993   -0.0000   1
1218.081   0.0065   0.0974   -0.0000   1
1218.140   0.0171   0.0983   0.0000   1
1218.200   0.0063   0.0973   -0.0000   1
1218.260   0.0070   0.0973   -0.0000   1
1218.320   0.0274   0.0991   -0.0000   1
1218.380   0.0060   0.0973   -0.0000   1
1218.439   -0.0037   0.0963   -0.0000   1
1218.499   0.0575   0.1018   0.0000   1
1218.559   -0.0044   0.0962   0.0000   1
1218.619   0.0050   0.0971   0.0000   1
1218.679   -0.0054   0.0962   0.0000   1
1218.739   0.0051   0.0971   0.0000   1
1218.798   0.0071   0.0973   0.0000   1
1218.858   0.0076   0.0976   0.0000   1
1218.918   -0.0028   0.0965   0.0000   1
1218.978   -0.0022   0.0965   0.0000   1
1219.038   0.0091   0.0976   0.0000   1
1219.098   0.0104   0.0980   0.0000   1
1219.157   0.0103   0.0980   0.0000   1
1219.217   -0.0123   0.0955   0.0001   1
1219.277   0.0303   0.0994   0.0002   1
1219.337   -0.0013   0.0963   0.0004   1
1219.397   -0.0009   0.0964   0.0007   1
1219.456   -0.0012   0.0962   0.0012   1
1219.516   0.0509   0.1007   0.0018   1
1219.576   0.0200   0.0977   0.0027   1
1219.636   0.0102   0.0967   0.0039   1
1219.696   0.0514   0.1006   0.0055   1
1219.755   -0.0101   0.0948   0.0075   1
1219.815   0.0198   0.0976   0.0098   1
1219.875   0.0505   0.1004   0.0126   1
1219.935   0.0302   0.0985   0.0159   1
1219.995   0.0913   0.1039   0.0197   1
1220.055   0.0097   0.0966   0.0240   1
1220.114   0.0404   0.0993   0.0288   1
1220.174   0.0708   0.1021   0.0341   1
1220.234   0.0608   0.1011   0.0398   1
1220.294   0.1015   0.1045   0.0460   1
1220.354   0.0911   0.1036   0.0527   1
1220.414   0.1017   0.1046   0.0598   1
1220.473   0.1227   0.1061   0.0673   1
1220.533   0.0826   0.1028   0.0751   1
1220.593   0.1143   0.1056   0.0833   1
1220.653   0.1352   0.1071   0.0918   1
1220.713   0.1662   0.1098   0.1006   1
1220.772   0.1664   0.1094   0.1097   1
1220.832   0.1770   0.1106   0.1190   1
1220.892   0.2380   0.1149   0.1284   1
1220.952   0.1568   0.1087   0.1381   1
1221.012   0.1673   0.1093   0.1479   1
1221.072   0.2587   0.1169   0.1578   1
1221.131   0.2684   0.1176   0.1678   1
1221.191   0.1565   0.1088   0.1779   1
1221.251   0.2383   0.1148   0.1881   1
1221.311   0.2488   0.1159   0.1983   1
1221.371   0.3503   0.1231   0.2085   1
1221.430   0.2278   0.1144   0.2188   1
1221.490   0.2575   0.1163   0.2290   1
1221.550   0.1959   0.1118   0.2392   1
1221.610   0.3277   0.1216   0.2494   1
1221.670   0.2553   0.1161   0.2595   1
1221.730   0.3158   0.1206   0.2696   1
1221.789   0.1637   0.1090   0.2796   1
1221.849   0.3974   0.1258   0.2895   1
1221.909   0.3261   0.1212   0.2993   1
1221.969   0.3360   0.1218   0.3091   1
1222.029   0.1997   0.1122   0.3187   1
1222.089   0.3211   0.1220   0.3283   1
1222.148   0.3689   0.1255   0.3377   1
1222.208   0.3226   0.1219   0.3471   1
1222.268   0.4267   0.1291   0.3563   1
1222.328   0.3874   0.1268   0.3654   1
1222.388   0.4484   0.1306   0.3744   1
1222.447   0.4691   0.1311   0.3833   1
1222.507   0.4709   0.1299   0.3920   1
1222.567   0.3768   0.1240   0.4007   1
1222.627   0.4373   0.1273   0.4092   1
1222.687   0.4277   0.1279   0.4176   1
1222.746   0.4179   0.1269   0.4258   1
1222.806   0.4473   0.1286   0.4339   1
1222.866   0.3961   0.1255   0.4420   1
1222.926   0.3860   0.1247   0.4498   1
1222.986   0.4866   0.1308   0.4576   1
1223.046   0.5362   0.1336   0.4652   1
1223.105   0.3940   0.1254   0.4727   1
1223.165   0.5453   0.1344   0.4801   1
1223.225   0.5257   0.1335   0.4874   1
1223.285   0.5858   0.1366   0.4945   1
1223.345   0.5556   0.1345   0.5015   1
1223.405   0.4347   0.1277   0.5084   1
1223.464   0.6262   0.1388   0.5152   1
1223.524   0.4846   0.1301   0.5219   1
1223.584   0.5149   0.1323   0.5285   1
1223.644   0.4743   0.1301   0.5349   1
1223.704   0.5345   0.1335   0.5412   1
1223.763   0.5443   0.1342   0.5475   1
1223.823   0.4647   0.1293   0.5536   1
1223.883   0.4249   0.1267   0.5596   1
1223.943   0.4754   0.1299   0.5655   1
1224.003   0.5865   0.1367   0.5713   1
1224.062   0.5080   0.1321   0.5771   1
1224.122   0.4403   0.1289   0.5827   1
1224.182   0.5850   0.1379   0.5882   1
1224.242   0.6127   0.1399   0.5936   1
1224.302   0.4557   0.1207   0.5989   1
1224.362   0.5420   0.1354   0.6042   1
1224.422   0.5878   0.1381   0.6093   1
1224.481   0.6454   0.1411   0.6144   1
1224.541   0.5661   0.1354   0.6194   1
1224.601   0.5874   0.1363   0.6242   1
1224.661   0.6368   0.1392   0.6290   1
1224.721   0.7377   0.1449   0.6338   1
1224.780   0.5668   0.1353   0.6384   1
1224.840   0.5462   0.1339   0.6429   1
1224.900   0.7970   0.1476   0.6474   1
1224.960   0.5453   0.1337   0.6518   1
1225.020   0.7350   0.1440   0.6562   1
1225.079   0.5241   0.1323   0.6604   1
1225.139   0.7839   0.1467   0.6646   1
1225.199   0.6137   0.1376   0.6687   1
1225.259   0.6034   0.1366   0.6728   1
1225.319   0.7232   0.1435   0.6767   1
1225.379   0.6233   0.1375   0.6807   1
1225.438   0.6139   0.1374   0.6845   1
1225.498   0.7654   0.1452   0.6883   1
1225.558   0.7454   0.1450   0.6920   1
1225.618   0.7357   0.1443   0.6957   1
1225.678   0.7754   0.1457   0.6993   1
1225.738   0.8453   0.1494   0.7028   1
1225.797   0.8845   0.1519   0.7063   1
1225.857   1.0745   0.1606   0.7097   1
1225.917   0.6449   0.1386   0.7131   1
1225.977   0.8456   0.1498   0.7164   1
1226.037   0.8255   0.1489   0.7196   1
1226.096   0.8236   0.1486   0.7228   1
1226.156   0.7738   0.1455   0.7260   1
1226.216   0.6941   0.1415   0.7291   1
1226.276   0.8632   0.1507   0.7322   1
1226.336   0.7723   0.1459   0.7352   1
1226.396   0.6318   0.1376   0.7381   1
1226.455   0.7806   0.1459   0.7410   1
1226.515   0.7592   0.1442   0.7439   1
1226.575   0.7590   0.1450   0.7467   0
1226.635   0.8297   0.1485   0.7495   0
1226.695   0.9285   0.1533   0.7523   0
1226.754   0.7789   0.1454   0.7549   0
1226.814   0.8197   0.1477   0.7576   0
1226.874   1.0091   0.1569   0.7602   0
1226.934   0.6304   0.1377   0.7628   0
1226.994   0.7894   0.1462   0.7653   0
1227.054   0.8188   0.1474   0.7678   0
1227.113   0.8184   0.1473   0.7703   0
1227.173   0.7871   0.1464   0.7727   0
1227.233   0.7985   0.1477   0.7751   0
1227.293   0.8524   0.1519   0.7774   0
1227.353   0.7817   0.1480   0.7797   0
1227.412   0.9889   0.1596   0.7820   0
1227.472   0.7190   0.1458   0.7842   0
1227.532   0.6916   0.1450   0.7865   0
1227.592   0.6872   0.1444   0.7886   0
1227.652   0.7970   0.1490   0.7908   0
1227.712   0.6944   0.1427   0.7929   0
1227.771   0.7454   0.1452   0.7950   0
1227.831   0.8490   0.1512   0.7970   0
1227.891   0.6815   0.1410   0.7991   0
1227.951   0.6973   0.1404   0.8011   0
1228.011   0.7075   0.1416   0.8030   0
1228.070   0.5986   0.1355   0.8050   0
1228.130   0.8479   0.1488   0.8069   0
1228.190   0.7982   0.1459   0.8088   0
1228.250   0.7187   0.1424   0.8106   0
1228.310   0.8477   0.1486   0.8124   0
1228.370   0.7590   0.1443   0.8143   0
1228.429   0.6498   0.1382   0.8160   0
1228.489   0.6791   0.1400   0.8178   0
1228.549   0.8354   0.1477   0.8195   0
1228.609   0.8246   0.1473   0.8212   0
1228.669   0.6565   0.1388   0.8229   0
1228.729   0.8448   0.1480   0.8246   0
1228.788   0.8548   0.1487   0.8262   0
1228.848   0.7354   0.1428   0.8278   0
1228.908   0.6657   0.1390   0.8294   0
1228.968   0.7751   0.1443   0.8310   0
1229.028   0.8453   0.1481   0.8326   0
1229.087   0.7260   0.1421   0.8341   0
1229.147   0.8450   0.1483   0.8356   0
1229.207   0.6661   0.1388   0.8371   0
1229.267   0.7645   0.1440   0.8386   0
1229.327   0.6057   0.1352   0.8400   0
1229.386   0.6748   0.1394   0.8415   0
1229.446   0.6457   0.1376   0.8429   0
1229.506   0.5172   0.1303   0.8443   0
1229.566   0.7836   0.1447   0.8456   0
1229.626   0.6749   0.1390   0.8470   0
1229.686   0.5270   0.1308   0.8484   0
1229.745   0.5864   0.1339   0.8497   0
1229.805   0.5264   0.1306   0.8510   0
1229.865   0.5755   0.1335   0.8523   0
1229.925   0.6347   0.1362   0.8536   0
1229.985   0.6758   0.1390   0.8548   0
1230.045   0.7946   0.1452   0.8561   0
1230.104   0.6763   0.1392   0.8573   0
1230.164   0.7739   0.1444   0.8585   0
1230.224   0.6447   0.1372   0.8597   0
1230.284   0.7238   0.1416   0.8609   0
1230.344   0.5551   0.1328   0.8621   0
1230.403   0.6982   0.1413   0.8632   0
1230.463   0.6271   0.1380   0.8644   0
1230.523   0.5884   0.1360   0.8655   0
1230.583   0.6051   0.1371   0.8666   0
1230.643   0.5857   0.1353   0.8677   0
1230.703   0.7187   0.1432   0.8688   0
1230.762   0.7306   0.1442   0.8699   0
1230.822   0.4229   0.1248   0.8709   0
1230.882   0.7065   0.1403   0.8720   0
1230.942   0.5959   0.1338   0.8730   0
1231.002   0.4867   0.1279   0.8740   0
1231.062   0.6240   0.1356   0.8750   0
1231.121   0.6538   0.1373   0.8760   0
1231.181   0.6837   0.1391   0.8770   0
1231.241   0.5953   0.1342   0.8780   0
1231.301   0.6253   0.1361   0.8790   0
1231.361   0.6151   0.1355   0.8799   0
1231.420   0.6930   0.1398   0.8809   0
1231.480   0.6156   0.1354   0.8818   0
1231.540   0.5071   0.1290   0.8827   0
1231.600   0.5075   0.1291   0.8836   0
1231.660   0.5071   0.1290   0.8845   0
1231.719   0.6052   0.1347   0.8854   0
1231.779   0.6150   0.1351   0.8863   0
1231.839   0.5159   0.1291   0.8872   0
1231.899   0.5552   0.1318   0.8880   0
1231.959   0.7329   0.1414   0.8889   0
1232.019   0.4760   0.1265   0.8897   0
1232.078   0.5444   0.1314   0.8905   0
1232.138   0.4369   0.1242   0.8914   0
1232.198   0.4569   0.1256   0.8922   0
1232.258   0.5055   0.1287   0.8930   0
1232.318   0.4956   0.1273   0.8938   0
1232.378   0.5257   0.1303   0.8946   0
1232.437   0.4664   0.1271   0.8953   0
1232.497   0.6766   0.1395   0.8961   0
1232.557   0.4074   0.1237   0.8969   0
1232.617   0.5481   0.1331   0.8976   0
1232.677   0.5946   0.1360   0.8984   0
1232.736   0.5227   0.1315   0.8991   0
1232.796   0.5400   0.1320   0.8998   0
1232.856   0.5509   0.1328   0.9006   0
1232.916   0.5314   0.1310   0.9013   0
1232.976   0.5822   0.1332   0.9020   0
1233.036   0.6106   0.1344   0.9027   0
1233.095   0.5902   0.1337   0.9034   0
1233.155   0.6595   0.1374   0.9041   0
1233.215   0.6402   0.1364   0.9047   0
1233.275   0.6205   0.1348   0.9054   0
1233.335   0.5708   0.1319   0.9061   0
1233.395   0.7189   0.1403   0.9067   0
1233.454   0.6600   0.1373   0.9074   0
1233.514   0.7486   0.1419   0.9080   0
1233.574   0.7482   0.1419   0.9087   0
1233.634   0.5817   0.1331   0.9093   0
1233.694   0.6216   0.1351   0.9099   0
1233.753   0.6116   0.1343   0.9105   0
1233.813   0.5026   0.1278   0.9111   0
1233.873   0.5221   0.1294   0.9117   0
1233.933   0.6597   0.1370   0.9123   0
1233.993   0.6009   0.1338   0.9129   0
1234.052   0.6786   0.1382   0.9135   0
1234.112   0.5214   0.1287   0.9141   0
1234.172   0.6289   0.1355   0.9147   0
1234.232   0.4135   0.1220   0.9152   0
1234.292   0.5706   0.1322   0.9158   0
1234.352   0.5031   0.1281   0.9164   0
1234.411   0.5716   0.1320   0.9169   0
1234.471   0.4734   0.1264   0.9175   0
1234.531   0.5417   0.1302   0.9180   0
1234.591   0.5521   0.1309   0.9185   0
1234.651   0.5322   0.1297   0.9191   0
1234.711   0.5325   0.1297   0.9196   0
1234.770   0.4938   0.1272   0.9201   0
1234.830   0.5249   0.1296   0.9206   0
1234.890   0.5630   0.1313   0.9212   0
1234.950   0.4458   0.1243   0.9217   0
1235.010   0.5835   0.1325   0.9222   0
1235.069   0.4866   0.1270   0.9227   0
1235.129   0.4571   0.1254   0.9232   0
1235.189   0.5159   0.1285   0.9236   0
1235.249   0.5158   0.1285   0.9241   0
1235.309   0.4666   0.1257   0.9246   0
1235.369   0.5538   0.1310   0.9251   0
1235.428   0.4549   0.1251   0.9255   0
1235.488   0.3868   0.1205   0.9260   0
1235.548   0.5468   0.1310   0.9265   0
1235.608   0.6366   0.1365   0.9269   0
1235.668   0.4280   0.1240   0.9274   0
1235.727   0.4933   0.1291   0.9278   0
1235.787   0.3660   0.1205   0.9283   0
1235.847   0.4884   0.1282   0.9287   0
1235.907   0.4022   0.1238   0.9292   0
1235.967   0.4114   0.1253   0.9296   0
1236.027   0.4835   0.1290   0.9300   0
1236.086   0.4848   0.1279   0.9304   0
1236.146   0.4051   0.1233   0.9309   0
1236.206   0.4022   0.1224   0.9313   0
1236.266   0.3943   0.1211   0.9317   0
1236.326   0.4252   0.1226   0.9321   0
1236.385   0.4336   0.1232   0.9325   0
1236.445   0.3364   0.1165   0.9329   0
1236.505   0.4923   0.1269   0.9333   0
1236.565   0.4537   0.1243   0.9337   0
1236.625   0.5707   0.1313   0.9341   0
1236.685   0.4336   0.1229   0.9345   0
1236.744   0.5516   0.1298   0.9349   0
1236.804   0.4636   0.1253   0.9352   0
1236.864   0.4438   0.1237   0.9356   0
1236.924   0.4445   0.1236   0.9360   0
1236.984   0.4542   0.1246   0.9364   0
1237.043   0.5125   0.1277   0.9367   0
1237.103   0.3766   0.1198   0.9371   0
1237.163   0.4748   0.1256   0.9375   0
1237.223   0.3286   0.1160   0.9378   0
1237.283   0.4651   0.1252   0.9382   0
1237.343   0.6306   0.1342   0.9385   0
1237.402   0.4929   0.1267   0.9389   0
1237.462   0.4730   0.1253   0.9392   0
1237.522   0.4054   0.1211   0.9396   0
1237.582   0.4249   0.1226   0.9399   0
1237.642   0.5414   0.1291   0.9403   0
1237.702   0.4929   0.1264   0.9406   0
1237.761   0.4052   0.1210   0.9409   0
1237.821   0.6004   0.1326   0.9413   0
1237.881   0.4347   0.1225   0.9416   0
1237.941   0.5026   0.1270   0.9419   0
1238.001   0.5020   0.1267   0.9422   0
1238.060   0.4238   0.1219   0.9426   0
1238.120   0.3451   0.1169   0.9429   0
1238.180   0.4609   0.1244   0.9432   0
1238.240   0.3638   0.1182   0.9435   0
1238.300   0.4326   0.1222   0.9438   0
1238.359   0.3156   0.1149   0.9441   0
1238.419   0.2859   0.1125   0.9444   0
1238.479   0.4411   0.1228   0.9447   0
1238.539   0.4019   0.1204   0.9450   0
1238.599   0.3727   0.1182   0.9453   0
1238.659   0.2854   0.1126   0.9456   0
1238.719   0.4911   0.1261   0.9459   0
1238.778   0.4803   0.1252   0.9462   0
1238.838   0.4216   0.1225   0.9465   0
1238.898   0.3753   0.1200   0.9468   0
1238.958   0.3966   0.1220   0.9470   0
1239.018   0.5433   0.1309   0.9473   0
1239.077   0.4102   0.1218   0.9476   0
1239.137   0.5229   0.1293   0.9479   0
1239.197   0.3262   0.1162   0.9482   0
1239.257   0.5623   0.1302   0.9484   0
1239.317   0.4523   0.1234   0.9487   0
1239.376   0.4907   0.1256   0.9490   0
1239.436   0.5003   0.1265   0.9492   0
1239.496   0.5091   0.1267   0.9495   0
1239.556   0.6362   0.1342   0.9498   0
1239.616   0.4908   0.1253   0.9500   0
1239.676   0.4331   0.1215   0.9503   0
1239.735   0.4516   0.1232   0.9505   0
1239.795   0.4319   0.1220   0.9508   0
1239.855   0.4317   0.1218   0.9510   0
1239.915   0.4997   0.1259   0.9513   0
1239.975   0.4907   0.1258   0.9515   0
1240.035   0.4321   0.1222   0.9518   0
1240.094   0.6367   0.1338   0.9520   0
1240.154   0.4904   0.1258   0.9523   0
1240.214   0.5186   0.1273   0.9525   0
1240.274   0.4314   0.1218   0.9527   0
1240.334   0.4701   0.1244   0.9530   0
1240.393   0.4413   0.1229   0.9532   0
1240.453   0.5873   0.1311   0.9534   0
1240.513   0.5870   0.1316   0.9537   0
1240.573   0.5480   0.1291   0.9539   0
1240.633   0.4697   0.1241   0.9541   0
1240.693   0.5373   0.1281   0.9544   0
1240.752   0.5565   0.1295   0.9546   0
1240.812   0.4396   0.1221   0.9548   0
1240.872   0.5584   0.1194   0.9550   0
1240.932   0.5559   0.1303   0.9553   0
1240.992   0.5688   0.1326   0.9555   0
1241.051   0.5068   0.1284   0.9557   0
1241.111   0.4677   0.1251   0.9559   0
1241.171   0.6011   0.1336   0.9561   0
1241.231   0.5384   0.1301   0.9563   0
1241.291   0.6901   0.1373   0.9565   0
1241.351   0.5877   0.1313   0.9567   0
1241.410   0.6811   0.1363   0.9570   0
1241.470   0.5943   0.1314   0.9572   0
1241.530   0.6815   0.1362   0.9574   0
1241.590   0.7882   0.1420   0.9576   0
1241.650   0.7017   0.1374   0.9578   0
1241.709   0.6727   0.1358   0.9580   0
1241.769   0.8760   0.1460   0.9582   0
1241.829   0.6341   0.1337   0.9584   0
1241.889   0.7017   0.1373   0.9586   0
1241.949   0.6629   0.1353   0.9588   0
1242.009   0.8655   0.1454   0.9590   0
1242.068   0.8856   0.1461   0.9591   0
1242.128   0.5190   0.1269   0.9593   0
1242.188   0.6939   0.1367   0.9595   0
1242.248   0.6258   0.1334   0.9597   0
1242.308   0.8186   0.1436   0.9599   0
1242.367   0.6828   0.1365   0.9601   0
1242.427   0.5566   0.1292   0.9603   0
1242.487   0.6448   0.1343   0.9605   0
1242.547   0.5772   0.1303   0.9606   0
1242.607   0.6922   0.1366   0.9608   0
1242.667   0.5945   0.1308   0.9610   0
1242.726   0.7979   0.1422   0.9612   0
1242.786   0.6057   0.1319   0.9613   0
1242.846   0.6736   0.1356   0.9615   0
1242.906   0.6541   0.1344   0.9617   0
1242.966   0.6830   0.1361   0.9619   0
1243.026   0.8658   0.1454   0.9620   0
1243.085   0.9024   0.1473   0.9622   0
1243.145   0.8043   0.1421   0.9624   0
1243.205   0.9195   0.1479   0.9626   1
1243.265   0.9576   0.1499   0.9627   1
1243.325   0.8514   0.1441   0.9629   1
1243.384   1.0341   0.1530   0.9631   1
1243.444   0.8826   0.1462   0.9632   1
1243.504   0.9033   0.1472   0.9634   1
1243.564   1.0470   0.1533   0.9635   1
1243.624   0.9605   0.1496   0.9637   1
1243.683   1.0563   0.1541   0.9639   1
1243.743   0.8434   0.1443   0.9640   1
1243.803   0.7658   0.1403   0.9642   1
1243.863   0.9078   0.1472   0.9643   1
1243.923   1.0618   0.1542   0.9645   1
1243.983   1.0239   0.1526   0.9646   1
1244.042   0.9156   0.1501   0.9648   1
1244.102   0.8639   0.1482   0.9650   1
1244.162   1.1067   0.1593   0.9651   1
1244.222   0.9878   0.1536   0.9653   1
1244.282   0.8109   0.1462   0.9654   1
1244.342   0.9724   0.1547   0.9656   1
1244.401   1.0441   0.1571   0.9657   1
1244.461   1.1361   0.1597   0.9658   1
1244.521   1.1684   0.1619   0.9660   1
1244.581   1.1665   0.1621   0.9661   1
1244.641   0.9547   0.1513   0.9663   1
1244.700   1.0368   0.1532   0.9664   1
1244.760   1.0046   0.1518   0.9666   1
1244.820   0.9384   0.1484   0.9667   1
1244.880   0.8996   0.1468   0.9669   1
1244.940   1.1788   0.1592   0.9670   1
1245.000   0.9387   0.1481   0.9671   1
1245.059   0.9575   0.1491   0.9673   1
1245.119   1.1500   0.1578   0.9674   1
1245.179   1.2564   0.1626   0.9675   1
1245.239   1.2080   0.1601   0.9677   1
1245.299   1.2548   0.1626   0.9678   1
1245.359   1.1778   0.1589   0.9679   1
1245.418   1.0826   0.1548   0.9681   1
1245.478   1.1388   0.1572   0.9682   0
1245.538   1.1836   0.1593   0.9683   0
1245.598   1.2029   0.1600   0.9685   0
1245.658   1.1453   0.1571   0.9686   0
1245.717   1.1644   0.1583   0.9687   0
1245.777   1.2415   0.1615   0.9689   0
1245.837   1.5004   0.1719   0.9690   0
1245.897   1.3754   0.1670   0.9691   0
1245.957   1.5279   0.1727   0.9692   0
1246.016   1.3259   0.1650   0.9694   0
1246.076   1.1728   0.1587   0.9695   0
1246.136   1.3743   0.1669   0.9696   0
1246.196   1.3645   0.1666   0.9697   0
1246.256   1.2483   0.1615   0.9699   0
1246.316   1.4781   0.1711   0.9700   0
1246.375   1.1422   0.1570   0.9701   0
1246.435   1.1904   0.1591   0.9702   0
1246.495   1.1624   0.1578   0.9703   0
1246.555   1.3443   0.1656   0.9705   0
1246.615   1.1046   0.1555   0.9706   0
1246.675   1.1720   0.1583   0.9707   0
1246.734   1.2391   0.1612   0.9708   0
1246.794   1.2297   0.1609   0.9709   0
1246.854   1.0654   0.1539   0.9710   0
1246.914   1.1318   0.1565   0.9711   0
1246.974   1.1126   0.1555   0.9713   0
1247.033   1.0262   0.1520   0.9714   0
1247.093   1.2670   0.1620   0.9715   0
1247.153   1.1000   0.1555   0.9716   0
1247.213   1.1701   0.1603   0.9717   0
1247.273   1.2071   0.1625   0.9718   0
1247.333   1.3311   0.1682   0.9719   0
1247.392   1.1564   0.1598   0.9720   0
1247.452   0.9133   0.1490   0.9721   0
1247.512   1.0187   0.1544   0.9723   0
1247.572   1.1215   0.1583   0.9724   0
1247.632   1.0195   0.1520   0.9725   0
1247.691   1.0651   0.1537   0.9726   0
1247.751   1.1134   0.1552   0.9727   0
1247.811   1.0475   0.1524   0.9728   0
1247.871   1.0577   0.1531   0.9729   0
1247.931   1.0096   0.1508   0.9730   0
1247.991   1.0089   0.1514   0.9731   0
1248.050   0.9996   0.1504   0.9732   0
1248.110   0.9621   0.1488   0.9733   0
1248.170   1.0757   0.1541   0.9734   0
1248.230   1.0651   0.1529   0.9735   0
1248.290   0.8929   0.1456   0.9736   0
1248.349   0.9693   0.1493   0.9737   0
1248.409   1.0651   0.1532   0.9738   0
1248.469   0.9116   0.1460   0.9739   0
1248.529   1.0294   0.1517   0.9740   0
1248.589   0.8183   0.1419   0.9741   0
1248.649   1.0490   0.1527   0.9742   0
1248.708   0.9237   0.1469   0.9743   0
1248.768   1.0097   0.1510   0.9744   0
1248.828   0.7701   0.1392   0.9745   0
1248.888   0.6749   0.1344   0.9746   0
1248.948   0.5976   0.1300   0.9747   0
1249.007   0.9403   0.1475   0.9748   0
1249.067   0.7585   0.1384   0.9748   0
1249.127   0.7208   0.1368   0.9749   0
1249.187   0.7404   0.1374   0.9750   0
1249.247   0.6582   0.1335   0.9751   0
1249.307   0.7524   0.1400   0.9752   0
1249.366   0.6007   0.1321   0.9753   0
1249.426   0.6722   0.1360   0.9754   0
1249.486   0.6486   0.1350   0.9755   0
1249.546   0.7634   0.1413   0.9756   0
1249.606   0.4714   0.1244   0.9757   0
1249.666   0.6374   0.1339   0.9758   0
1249.725   0.7288   0.1376   0.9758   0
1249.785   0.6454   0.1329   0.9759   0
1249.845   0.6364   0.1323   0.9760   0
1249.905   0.7513   0.1386   0.9761   0
1249.965   0.8950   0.1455   0.9762   0
1250.024   0.8572   0.1436   0.9763   0
1250.084   0.7600   0.1385   0.9764   0
1250.144   0.9119   0.1462   0.9764   0
1250.204   0.7398   0.1375   0.9765   0
1250.264   0.8450   0.1430   0.9766   0
1250.323   0.9883   0.1499   0.9767   0
1250.383   1.0166   0.1511   0.9768   0
1250.443   0.7210   0.1367   0.9769   0
1250.503   0.6063   0.1301   0.9769   0
1250.563   0.6256   0.1312   0.9770   0
1250.623   0.5587   0.1275   0.9771   0
1250.682   0.7017   0.1355   0.9772   0
1250.742   0.9308   0.1471   0.9773   0
1250.802   1.0549   0.1529   0.9773   0
1250.862   1.0943   0.1542   0.9774   0
1250.922   0.8073   0.1411   0.9775   0
1250.982   0.9409   0.1470   0.9776   0
1251.041   1.0959   0.1546   0.9777   0
1251.101   1.1531   0.1568   0.9777   0
1251.161   1.1434   0.1566   0.9778   0
1251.221   1.1618   0.1571   0.9779   0
1251.281   1.0353   0.1518   0.9780   0
1251.340   1.0259   0.1512   0.9780   0
1251.400   1.2349   0.1603   0.9781   0
1251.460   1.2828   0.1622   0.9782   0
1251.520   0.9679   0.1488   0.9783   0
1251.580   1.1587   0.1572   0.9783   0
1251.640   1.0636   0.1525   0.9784   0
1251.699   1.1413   0.1564   0.9785   0
1251.759   1.1129   0.1552   0.9786   0
1251.819   1.0554   0.1522   0.9786   0
1251.879   1.1874   0.1583   0.9787   0
1251.939   0.9303   0.1468   0.9788   0
1251.999   0.8920   0.1446   0.9788   0
1252.058   0.9109   0.1461   0.9789   0
1252.118   0.8062   0.1406   0.9790   0
1252.178   0.9019   0.1455   0.9791   0
1252.238   0.9491   0.1476   0.9791   0
1252.298   0.8829   0.1445   0.9792   0
1252.357   0.6239   0.1313   0.9793   0
1252.417   0.6746   0.1354   0.9793   0
1252.477   0.7150   0.1385   0.9794   0
1252.537   0.6597   0.1345   0.9795   0
1252.597   0.5977   0.1311   0.9795   0
1252.656   0.3943   0.1198   0.9796   0
1252.716   0.4100   0.1216   0.9797   0
1252.776   0.3515   0.1165   0.9797   0
1252.836   0.5386   0.1280   0.9798   0
1252.896   0.4953   0.1252   0.9799   0
1252.956   0.6614   0.1353   0.9799   0
1253.015   0.5268   0.1270   0.9800   0
1253.075   0.6708   0.1342   0.9801   0
1253.135   0.7139   0.1363   0.9801   0
1253.195   0.7999   0.1407   0.9802   0
1253.255   0.9226   0.1463   0.9803   0
1253.315   0.7694   0.1387   0.9803   0
1253.374   0.8751   0.1442   0.9804   0
1253.434   0.9706   0.1485   0.9805   0
1253.494   0.7319   0.1366   0.9805   0
1253.554   0.7325   0.1367   0.9806   0
1253.614   0.6369   0.1314   0.9807   0
1253.673   0.5985   0.1295   0.9807   0
1253.733   0.6267   0.1311   0.9808   0
1253.793   0.4450   0.1201   0.9808   0
1253.853   0.5980   0.1295   0.9809   0
1253.913   0.5404   0.1261   0.9810   0
1253.973   0.7217   0.1360   0.9810   0
1254.032   0.8071   0.1406   0.9811   0
1254.092   0.8165   0.1406   0.9811   0
1254.152   0.8727   0.1438   0.9812   0
1254.212   0.9780   0.1487   0.9813   0
1254.272   0.7489   0.1376   0.9813   0
1254.331   0.8159   0.1408   0.9814   0
1254.391   0.9121   0.1457   0.9814   0
1254.451   0.9119   0.1458   0.9815   0
1254.511   0.8443   0.1423   0.9816   0
1254.571   1.0743   0.1529   0.9816   0
1254.631   0.8061   0.1401   0.9817   0
1254.690   1.0165   0.1504   0.9817   0
1254.750   0.9973   0.1496   0.9818   0
1254.810   0.9031   0.1448   0.9818   0
1254.870   0.8267   0.1411   0.9819   0
1254.930   0.8077   0.1403   0.9820   0
1254.990   1.0384   0.1514   0.9820   0
1255.049   0.7705   0.1384   0.9821   0
1255.109   0.8946   0.1450   0.9821   0
1255.169   1.0481   0.1519   0.9822   0
1255.229   0.8859   0.1442   0.9822   0
1255.289   0.8187   0.1411   0.9823   0
1255.348   0.9436   0.1471   0.9824   0
1255.408   0.9247   0.1466   0.9824   0
1255.468   0.8581   0.1432   0.9825   0
1255.528   0.8493   0.1424   0.9825   0
1255.588   0.8571   0.1438   0.9826   0
1255.647   0.9097   0.1478   0.9826   0
1255.707   0.6704   0.1357   0.9827   0
1255.767   0.6318   0.1331   0.9827   0
1255.827   0.4893   0.1243   0.9828   0
1255.887   0.3073   0.1119   0.9828   0
1255.947   0.2994   0.1118   0.9829   0
1256.006   0.2346   0.1061   0.9829   0
1256.066   0.3623   0.1150   0.9830   0
1256.126   0.3511   0.1134   0.9830   0
1256.186   0.5427   0.1258   0.9831   0
1256.246   0.4175   0.1184   0.9831   0
1256.306   0.3792   0.1163   0.9832   0
1256.365   0.4466   0.1200   0.9832   0
1256.425   0.6099   0.1297   0.9833   0
1256.485   0.7157   0.1353   0.9833   0
1256.545   0.7438   0.1369   0.9834   0
1256.605   0.9351   0.1464   0.9834   0
1256.664   0.8871   0.1444   0.9835   0
1256.724   0.7913   0.1396   0.9835   0
1256.784   0.9354   0.1468   0.9836   0
1256.844   0.8967   0.1451   0.9836   0
1256.904   0.7816   0.1394   0.9837   0
1256.964   0.7335   0.1365   0.9837   0
1257.023   0.9261   0.1460   0.9838   0
1257.083   0.8683   0.1437   0.9838   0
1257.143   0.9068   0.1456   0.9839   0
1257.203   0.9269   0.1461   0.9839   0
1257.263   0.9748   0.1486   0.9840   0
1257.323   0.9449   0.1466   0.9840   0
1257.382   0.8825   0.1332   0.9841   0
1257.442   0.8293   0.1414   0.9841   0
1257.502   0.9061   0.1455   0.9842   0
1257.562   0.9161   0.1457   0.9842   0
1257.622   0.7143   0.1358   0.9843   0
1257.681   0.9097   0.1469   0.9843   0
1257.741   0.9422   0.1495   0.9843   0
1257.801   0.8546   0.1448   0.9844   0
1257.861   0.7620   0.1398   0.9844   0
1257.921   0.9130   0.1480   0.9845   0
1257.980   0.8682   0.1456   0.9845   0
1258.040   0.8951   0.1468   0.9846   0
1258.100   0.9338   0.1481   0.9846   0
1258.160   0.9375   0.1468   0.9847   0
1258.220   0.9376   0.1462   0.9847   0
1258.280   0.9877   0.1494   0.9847   0
1258.339   0.6489   0.1323   0.9848   0
1258.399   1.0818   0.1534   0.9848   0
1258.459   0.8212   0.1410   0.9849   0
1258.519   0.8986   0.1450   0.9849   0
1258.579   0.9564   0.1477   0.9850   0
1258.639   0.8983   0.1445   0.9850   0
1258.698   0.8800   0.1439   0.9851   0
1258.758   0.8123   0.1410   0.9851   0
1258.818   0.7739   0.1384   0.9851   0
1258.878   0.8896   0.1447   0.9852   0
1258.938   0.8223   0.1410   0.9852   0
1258.997   0.8998   0.1450   0.9853   0
1259.057   0.7747   0.1386   0.9853   0
1259.117   0.7669   0.1386   0.9853   0
1259.177   0.7766   0.1389   0.9854   0
1259.237   0.7283   0.1364   0.9854   0
1259.297   0.7191   0.1350   0.9855   0
1259.356   0.5649   0.1276   0.9855   0
1259.416   0.4975   0.1231   0.9856   0
1259.476   0.4013   0.1170   0.9856   0
1259.536   0.3526   0.1140   0.9856   0
1259.596   0.4489   0.1204   0.9857   0
1259.655   0.6127   0.1303   0.9857   0
1259.715   0.4972   0.1233   0.9858   0
1259.775   0.5352   0.1254   0.9858   0
1259.835   0.4869   0.1228   0.9858   0
1259.895   0.4676   0.1217   0.9859   0
1259.955   0.4293   0.1190   0.9859   0
1260.014   0.3241   0.1122   0.9859   0
1260.074   0.2371   0.1052   0.9860   0
1260.134   0.2273   0.1051   0.9860   0
1260.194   0.1117   0.0951   0.9861   0
1260.254   0.0828   0.0925   0.9861   0
1260.313   0.0633   0.0907   0.9861   0
1260.373   0.0632   0.0906   0.9862   0
1260.433   0.0248   0.0869   0.9862   0
1260.493   0.0152   0.0858   0.9863   0
1260.553   0.0345   0.0877   0.9863   0
1260.613   0.0639   0.0907   0.9863   0
1260.672   0.1221   0.0960   0.9864   0
1260.732   0.1511   0.0985   0.9864   0
1260.792   0.2670   0.1085   0.9864   0
1260.852   0.2397   0.1066   0.9865   0
1260.912   0.3312   0.1137   0.9865   0
1260.971   0.4234   0.1199   0.9865   0
1261.031   0.6231   0.1326   0.9866   0
1261.091   0.5487   0.1282   0.9866   0
1261.151   0.7205   0.1401   0.9867   0
1261.211   0.8583   0.1465   0.9867   0
1261.271   0.6787   0.1357   0.9867   0
1261.330   0.7886   0.1417   0.9868   0
1261.390   0.7507   0.1398   0.9868   0
1261.450   0.5492   0.1281   0.9868   0
1261.510   0.4250   0.1192   0.9869   0
1261.570   0.3330   0.1123   0.9869   0
1261.630   0.2936   0.1098   0.9869   0
1261.689   0.2260   0.1047   0.9870   0
1261.749   0.2067   0.1028   0.9870   0
1261.809   0.2548   0.1065   0.9870   0
1261.869   0.1584   0.0992   0.9871   0
1261.929   0.1972   0.1023   0.9871   0
1261.988   0.1302   0.0965   0.9871   0
1262.048   0.3417   0.1131   0.9872   0
1262.108   0.5922   0.1286   0.9872   0
1262.168   0.3911   0.1160   0.9872   0
1262.228   0.4003   0.1174   0.9873   0
1262.287   0.2554   0.1069   0.9873   0
1262.347   0.2555   0.1065   0.9873   0
1262.407   0.2362   0.1052   0.9874   0
1262.467   0.0730   0.0913   0.9874   0
1262.527   0.0920   0.0931   0.9874   0
1262.587   0.0443   0.0886   0.9875   0
1262.646   0.0638   0.0906   0.9875   0
1262.706   0.0352   0.0877   0.9875   0
1262.766   0.0255   0.0867   0.9876   0
1262.826   0.0442   0.0885   0.9876   0
1262.886   0.0825   0.0922   0.9876   0
1262.946   0.0817   0.0923   0.9877   0
1263.005   0.0719   0.0912   0.9877   0
1263.065   0.2930   0.1089   0.9877   0
1263.125   0.3307   0.1121   0.9878   0
1263.185   0.4844   0.1223   0.9878   0
1263.245   0.4750   0.1216   0.9878   0
1263.304   0.6290   0.1305   0.9879   1
1263.364   0.8873   0.1439   0.9879   1
1263.424   0.8869   0.1434   0.9879   1
1263.484   0.8770   0.1434   0.9880   1
1263.544   0.8096   0.1403   0.9880   1
1263.604   0.8285   0.1411   0.9880   1
1263.663   1.0503   0.1518   0.9880   1
1263.723   0.9636   0.1474   0.9881   1
1263.783   0.8681   0.1432   0.9881   1
1263.843   0.7341   0.1363   0.9881   1
1263.903   1.0208   0.1498   0.9882   1
1263.963   0.8481   0.1419   0.9882   1
1264.022   0.9533   0.1471   0.9882   1
1264.082   1.0269   0.1528   0.9883   1
1264.142   0.9000   0.1466   0.9883   1
1264.202   0.9893   0.1515   0.9883   1
1264.262   0.9572   0.1500   0.9883   1
1264.321   1.0315   0.1540   0.9884   1
1264.381   0.7798   0.1405   0.9884   1
1264.441   1.0233   0.1526   0.9884   1
1264.501   1.0330   0.1509   0.9885   1
1264.561   0.8957   0.1444   0.9885   1
1264.620   0.8195   0.1406   0.9885   1
1264.680   0.9813   0.1475   0.9885   1
1264.740   1.0285   0.1500   0.9886   1
1264.800   0.9036   0.1447   0.9886   1
1264.860   0.8665   0.1428   0.9886   1
1264.920   1.0102   0.1491   0.9887   1
1264.979   1.0292   0.1506   0.9887   1
1265.039   1.0293   0.1502   0.9887   1
1265.099   1.0100   0.1496   0.9887   1
1265.159   0.8664   0.1431   0.9888   1
1265.219   0.9142   0.1453   0.9888   1
1265.279   0.9513   0.1468   0.9888   1
1265.338   0.7218   0.1357   0.9889   1
1265.398   0.9415   0.1464   0.9889   1
1265.458   1.1709   0.1563   0.9889   1
1265.518   0.9985   0.1490   0.9889   1
1265.578   1.0071   0.1496   0.9890   1
1265.637   0.9207   0.1453   0.9890   1
1265.697   0.8055   0.1394   0.9890   1
1265.757   0.9195   0.1450   0.9890   1
1265.817   0.9006   0.1445   0.9891   1
1265.877   1.1861   0.1571   0.9891   1
1265.937   0.9857   0.1483   0.9891   1
1265.996   0.8046   0.1394   0.9892   1
1266.056   0.9002   0.1443   0.9892   1
1266.116   0.9778   0.1480   0.9892   1
1266.176   0.7621   0.1394   0.9892   1
1266.236   1.1040   0.1567   0.9893   1
1266.296   0.9535   0.1511   0.9893   1
1266.355   1.0454   0.1561   0.9893   1
1266.415   0.9182   0.1504   0.9893   1
1266.475   0.8500   0.1460   0.9894   1
1266.535   0.8553   0.1453   0.9894   1
1266.595   0.7838   0.1390   0.9894   1
1266.654   0.7749   0.1380   0.9894   1
1266.714   0.8593   0.1425   0.9895   1
1266.774   0.9076   0.1447   0.9895   1
1266.834   0.6128   0.1297   0.9895   1
1266.894   0.7270   0.1354   0.9895   1
1266.953   0.8041   0.1396   0.9896   1
1267.013   0.9849   0.1484   0.9896   1
1267.073   0.8428   0.1413   0.9896   1
1267.133   1.0598   0.1519   0.9896   1
1267.193   0.9737   0.1473   0.9897   1
1267.253   0.8790   0.1429   0.9897   1
1267.312   0.8032   0.1396   0.9897   1
1267.372   1.1070   0.1538   0.9897   1
1267.432   0.9731   0.1478   0.9898   1
1267.492   1.0299   0.1503   0.9898   1
1267.552   1.0000   0.1489   0.9898   1
1267.612   0.9612   0.1467   0.9898   1
1267.671   1.1313   0.1544   0.9899   1
1267.731   0.9131   0.1444   0.9899   1
1267.791   1.0548   0.1512   0.9899   1
1267.851   0.7987   0.1392   0.9899   1
1267.911   0.7985   0.1389   0.9899   1
1267.970   0.8450   0.1415   0.9900   1
1268.030   0.7784   0.1379   0.9900   1
1268.090   0.9005   0.1442   0.9900   1
1268.150   0.8056   0.1393   0.9900   1
1268.210   0.7209   0.1348   0.9901   1
1268.270   0.9290   0.1450   0.9901   1
1268.329   1.0044   0.1486   0.9901   1
1268.389   0.9289   0.1455   0.9901   1
1268.449   1.0892   0.1528   0.9902   1
1268.509   1.1231   0.1539   0.9902   1
1268.569   1.0359   0.1513   0.9902   1
1268.628   0.9503   0.1487   0.9902   1
1268.688   0.8878   0.1471   0.9902   1
1268.748   0.9165   0.1502   0.9903   1
1268.808   0.9233   0.1503   0.9903   1
1268.868   1.0105   0.1530   0.9903   1
1268.928   1.0416   0.1526   0.9903   1
1268.987   0.8957   0.1447   0.9904   1
1269.047   1.1404   0.1546   0.9904   1
1269.107   0.8269   0.1402   0.9904   1
1269.167   0.9062   0.1443   0.9904   1
1269.227   0.8946   0.1442   0.9904   1
1269.286   1.0533   0.1548   0.9905   1
1269.346   1.0020   0.1535   0.9905   1
1269.406   0.6652   0.1361   0.9905   1
1269.466   0.8871   0.1474   0.9905   1
1269.526   0.9179   0.1498   0.9906   1
1269.586   1.1106   0.1578   0.9906   1
1269.645   1.1696   0.1596   0.9906   1
1269.705   1.0125   0.1507   0.9906   1
1269.765   0.8719   0.1444   0.9906   1
1269.825   0.8863   0.1449   0.9907   1
1269.885   0.8154   0.1411   0.9907   1
1269.944   0.7831   0.1376   0.9907   1
1270.004   0.8356   0.1405   0.9907   1
1270.064   0.8691   0.1424   0.9907   1
1270.124   0.8931   0.1432   0.9908   1
1270.184   1.0986   0.1526   0.9908   1
1270.244   0.9396   0.1452   0.9908   1
1270.303   0.9017   0.1434   0.9908   1
1270.363   0.9863   0.1476   0.9908   1
1270.423   0.8915   0.1427   0.9909   1
1270.483   0.9371   0.1450   0.9909   1
1270.543   1.1617   0.1550   0.9909   1
1270.603   0.9470   0.1452   0.9909   1
1270.662   1.0220   0.1490   0.9909   1
1270.722   0.8262   0.1398   0.9910   1
1270.782   0.9842   0.1470   0.9910   1
1270.842   0.8623   0.1417   0.9910   1
1270.902   0.9549   0.1620   0.9910   1
1270.961   0.9931   0.1705   0.9910   1
1271.021   0.9203   0.1660   0.9911   1
1271.081   0.8948   0.1650   0.9911   1
1271.141   0.8820   0.1648   0.9911   1
1271.201   0.8935   0.1652   0.9911   1
1271.260   1.1496   0.1788   0.9911   1
1271.320   0.8493   0.1637   0.9912   1
1271.380   0.9132   0.1679   0.9912   1
1271.440   0.9437   0.1717   0.9912   1
1271.500   0.9215   0.1719   0.9912   1
1271.560   0.8396   0.1675   0.9912   1
1271.620   0.9239   0.1726   0.9913   1
1271.679   0.9323   0.1743   0.9913   1
1271.739   0.6962   0.1611   0.9913   1
1271.799   1.0628   0.1813   0.9913   1
1271.859   0.9249   0.1711   0.9913   1
1271.919   0.9159   0.1685   0.9914   1
1271.978   0.7040   0.1548   0.9914   1
1272.038   0.9356   0.1677   0.9914   1
1272.098   0.9472   0.1684   0.9914   1
1272.158   0.7382   0.1564   0.9914   1
1272.218   0.7651   0.1573   0.9914   1
1272.277   0.9608   0.1681   0.9915   1
1272.337   1.0721   0.1736   0.9915   1
1272.397   0.8356   0.1613   0.9915   1
1272.457   0.9570   0.1690   0.9915   1
1272.517   0.8025   0.1610   0.9915   1
1272.577   0.9771   0.1712   0.9916   1
1272.636   0.9666   0.1719   0.9916   1
1272.696   1.0637   0.1766   0.9916   1
1272.756   1.1094   0.1797   0.9916   1
1272.816   0.9436   0.1695   0.9916   1
1272.876   0.8393   0.1615   0.9916   1
1272.936   0.8341   0.1612   0.9917   1
1272.995   0.8723   0.1628   0.9917   1
1273.055   0.7849   0.1584   0.9917   1
1273.115   0.9329   0.1664   0.9917   1
1273.175   1.0193   0.1710   0.9917   1
1273.235   0.8956   0.1641   0.9918   1
1273.294   0.9061   0.1642   0.9918   1
1273.354   0.7957   0.1588   0.9918   1
1273.414   0.9188   0.1657   0.9918   1
1273.474   0.9306   0.1663   0.9918   1
1273.534   0.9333   0.1663   0.9918   1
1273.594   1.0660   0.1744   0.9919   1
1273.653   0.8157   0.1625   0.9919   1
1273.713   0.7406   0.1597   0.9919   1
1273.773   0.8295   0.1673   0.9919   1
1273.833   0.7403   0.1839   0.9919   1
1273.893   0.8847   0.2130   0.9919   1
1273.952   0.8104   0.1878   0.9920   1
1274.012   1.0520   0.2146   0.9920   1
1274.072   0.8839   0.2020   0.9920   1
1274.132   1.0618   0.2130   0.9920   1
1274.192   1.0023   0.2087   0.9920   1
1274.252   0.9431   0.2050   0.9920   1
1274.311   0.8827   0.1999   0.9921   1
1274.371   0.7592   0.1925   0.9921   1
1274.431   0.7814   0.1953   0.9921   1
1274.491   0.8683   0.2045   0.9921   1
1274.551   0.9501   0.2150   0.9921   1
1274.610   0.8235   0.2072   0.9921   1
1274.670   0.7607   0.1984   0.9922   1
1274.730   0.9389   0.2089   0.9922   1
1274.790   0.8713   0.2055   0.9922   1
1274.850   1.1762   0.2258   0.9922   1
1274.910   0.9239   0.2071   0.9922   1
1274.969   0.8818   0.2010   0.9922   1
1275.029   0.6735   0.1854   0.9923   1
1275.089   0.8211   0.1949   0.9923   1
1275.149   0.9679   0.2055   0.9923   1
1275.209   0.9559   0.2037   0.9923   1
1275.268   0.9750   0.2062   0.9923   1
1275.328   1.0433   0.2100   0.9923   1
1275.388   0.9320   0.2027   0.9923   1
1275.448   0.6750   0.1845   0.9924   1
1275.508   0.9160   0.2022   0.9924   1
1275.568   1.1551   0.2173   0.9924   1
1275.627   0.9524   0.2048   0.9924   1
1275.687   1.0261   0.2086   0.9924   1
1275.747   1.1912   0.2195   0.9924   1
1275.807   1.0440   0.2104   0.9925   1
1275.867   0.8965   0.2012   0.9925   1
1275.927   0.9901   0.2711   0.9925   1
1275.986   0.8058   0.2752   0.9925   1
1276.046   1.1389   0.3052   0.9925   1
1276.106   0.8434   0.2801   0.9925   1
1276.166   1.3252   0.3214   0.9925   1
1276.226   1.4323   0.3300   0.9926   1
1276.285   1.4318   0.3300   0.9926   1
1276.345   1.2840   0.3174   0.9926   1
1276.405   1.1371   0.3058   0.9926   1
1276.465   0.9535   0.2901   0.9926   1
1276.525   0.9190   0.2875   0.9926   1
1276.584   0.9198   0.2875   0.9927   1
1276.644   1.3150   0.3237   0.9927   1
1276.704   0.9719   0.3004   0.9927   1
1276.764   0.7368   0.2851   0.9927   1
1276.824   0.8115   0.3091   0.9927   1
1276.884   1.1918   0.3688   0.9927   1
1276.943   0.7568   0.3098   0.9927   1
1277.003   0.7361   0.2980   0.9928   1
1277.063   0.9980   0.3145   0.9928   1
1277.123   1.1749   0.3194   0.9928   1
1277.183   0.6888   0.2666   0.9928   1
1277.243   0.9440   0.2922   0.9928   1
1277.302   0.4822   0.2428   0.9928   1
1277.362   1.2588   0.3172   0.9928   1
1277.422   0.8825   0.2847   0.9929   1
1277.482   0.7335   0.2693   0.9929   1
1277.542   0.8816   0.2841   0.9929   1
1277.601   0.5154   0.2449   0.9929   1
1277.661   0.7981   0.2877   0.9929   1
1277.721   0.8116   0.2890   0.9929   1
1277.781   1.3701   0.3430   0.9929   1
1277.841   0.9282   0.3051   0.9929   1
1277.901   0.7353   0.2869   0.9930   1
1277.960   0.9956   0.3141   0.9930   1
1278.020   0.8839   0.2937   0.9930   1
1278.080   0.7731   0.2472   0.9930   1
1278.140   0.3656   0.1349   0.9930   1
1278.200   0.4765   0.1453   0.9930   1
1278.260   0.5134   0.1483   0.9930   1
1278.319   0.4215   0.1400   0.9931   1
1278.379   0.5135   0.1483   0.9931   1
1278.439   0.4579   0.1433   0.9931   1
1278.499   0.4395   0.1416   0.9931   1
1278.559   0.4213   0.1406   0.9931   1
1278.618   0.4400   0.1416   0.9931   1
1278.678   0.6266   0.1586   0.9931   1
1278.738   0.4407   0.1426   0.9932   1
1278.798   0.4958   0.1475   0.9932   1
1278.858   0.3482   0.1320   0.9932   1
1278.917   0.4789   0.1457   0.9932   1
1278.977   0.3491   0.1334   0.9932   1
1279.037   0.2583   0.1177   0.9932   1
1279.097   0.0000   0.0000   0.9932   1
1279.157   0.0000   0.0000   0.9932   1
1279.217   0.0000   0.0000   0.9933   1
1279.276   0.0000   0.0000   0.9933   1
1279.336   0.0000   0.0000   0.9933   1
1279.396   0.0000   0.0000   0.9933   1
1279.456   0.0000   0.0000   0.9933   1
1279.516   0.0000   0.0000   0.9933   1
1279.576   0.0000   0.0000   0.9933   1
1279.635   0.0000   0.0000   0.9933   1
1279.695   0.0000   0.0000   0.9934   1
1279.755   0.0000   0.0000   0.9934   1
1279.815   0.0000   0.0000   0.9934   1
1279.875   0.0000   0.0000   0.9934   1
1279.934   0.0000   0.0000   0.9934   1
1279.994   0.0000   0.0000   0.9934   1
1280.054   0.0000   0.0000   0.9934   1
1280.114   0.0000   0.0000   0.9934   1
1280.174   0.0000   0.0000   0.9935   1
1280.234   0.0000   0.0000   0.9935   1
1280.293   0.0000   0.0000   0.9935   1
1280.353   0.0000   0.0000   0.9935   1
1280.413   0.0000   0.0000   0.9935   1
1280.473   0.0000   0.0000   0.9935   1
1280.533   0.0000   0.0000   0.9935   1
1280.592   0.0000   0.0000   0.9935   1
1280.652   0.0000   0.0000   0.9936   1
1280.712   0.0000   0.0000   0.9936   1
1280.772   0.0000   0.0000   0.9936   1
1280.832   0.0000   0.0000   0.9936   1
1280.892   0.0000   0.0000   0.9936   1
1280.951   0.0000   0.0000   0.9936   1
1281.011   0.0000   0.0000   0.9936   1
1281.071   0.0000   0.0000   0.9936   1
1281.131   0.0000   0.0000   0.9937   1
1281.191   0.0000   0.0000   0.9937   1
1281.250   0.0000   0.0000   0.9937   1
1281.310   0.0000   0.0000   0.9937   1
1281.370   0.0000   0.0000   0.9937   1
1281.430   0.0000   0.0000   0.9937   1
1281.490   0.0000   0.0000   0.9937   1
1281.550   0.0000   0.0000   0.9937   1
1281.609   0.0000   0.0000   0.9937   1
1281.669   0.0000   0.0000   0.9938   1
1281.729   0.0000   0.0000   0.9938   1
1281.789   0.0000   0.0000   0.9938   1
1281.849   0.0000   0.0000   0.9938   1
1281.908   0.0000   0.0000   0.9938   1
1281.968   0.0000   0.0000   0.9938   1
1282.028   0.0000   0.0000   0.9938   1
1282.088   0.0000   0.0000   0.9938   1
1282.148   0.0000   0.0000   0.9938   1
1282.208   0.0000   0.0000   0.9939   1
1282.267   0.0000   0.0000   0.9939   1
1282.327   0.0000   0.0000   0.9939   1
1282.387   0.0000   0.0000   0.9939   1
1282.447   0.0000   0.0000   0.9939   1
1282.507   0.0000   0.0000   0.9939   1
1282.567   0.0000   0.0000   0.9939   1
1282.626   0.0000   0.0000   0.9939   1
1282.686   0.0000   0.0000   0.9939   1
1282.746   0.0000   0.0000   0.9940   1
1282.806   0.0000   0.0000   0.9940   1
1282.866   0.0000   0.0000   0.9940   1
1282.925   0.0000   0.0000   0.9940   1
1282.985   0.0000   0.0000   0.9940   1
1283.045   0.0000   0.0000   0.9940   1
1283.105   0.0000   0.0000   0.9940   1
1283.165   0.0000   0.0000   0.9940   1
1283.224   0.0000   0.0000   0.9940   1
1283.284   0.0000   0.0000   0.9941   1
1283.344   0.0000   0.0000   0.9941   1
1283.404   0.0000   0.0000   0.9941   1
1283.464   0.0000   0.0000   0.9941   1
1283.524   0.0000   0.0000   0.9941   1
1283.583   0.0000   0.0000   0.9941   1
1283.643   0.0000   0.0000   0.9941   1
1283.703   0.0000   0.0000   0.9941   1
1283.763   0.0000   0.0000   0.9941   1
1283.823   0.0000   0.0000   0.9942   1
1283.883   0.0000   0.0000   0.9942   1
1283.942   0.0000   0.0000   0.9942   1
1284.002   0.0000   0.0000   0.9942   1
1284.062   0.0000   0.0000   0.9942   1
1284.122   0.0000   0.0000   0.9942   1
1284.182   0.0000   0.0000   0.9942   1
1284.241   0.0000   0.0000   0.9942   1
1284.301   0.0000   0.0000   0.9942   1
1284.361   0.0000   0.0000   0.9942   1
1284.421   0.0000   0.0000   0.9943   1
1284.481   0.0000   0.0000   0.9943   1
1284.541   0.0000   0.0000   0.9943   1
1284.600   0.0000   0.0000   0.9943   1
1284.660   0.0000   0.0000   0.9943   1
1284.720   0.0000   0.0000   0.9943   1
1284.780   0.0000   0.0000   0.9943   1
1284.840   0.0000   0.0000   0.9943   1
1284.900   0.0000   0.0000   0.9943   1
1284.959   0.0000   0.0000   0.9943   1
1285.019   0.0000   0.0000   0.9944   1
1285.079   0.0000   0.0000   0.9944   1
1285.139   0.0000   0.0000   0.9944   1
1285.199   0.0000   0.0000   0.9944   1
1285.258   0.0000   0.0000   0.9944   1
1285.318   0.0000   0.0000   0.9944   1
1285.378   0.0000   0.0000   0.9944   1
1285.438   0.0000   0.0000   0.9944   1
1285.498   0.0000   0.0000   0.9944   1
1285.557   0.0000   0.0000   0.9944   1
1285.617   0.0000   0.0000   0.9945   1
1285.677   0.0000   0.0000   0.9945   1
1285.737   0.0000   0.0000   0.9945   1
1285.797   0.0000   0.0000   0.9945   1
1285.857   0.0000   0.0000   0.9945   1
1285.916   0.0000   0.0000   0.9945   1
1285.976   0.0000   0.0000   0.9945   1
1286.036   0.0000   0.0000   0.9945   1
1286.096   0.0000   0.0000   0.9945   1
1286.156   0.0000   0.0000   0.9945   1
1286.216   0.0000   0.0000   0.9945   1
1286.275   0.0000   0.0000   0.9946   1
1286.335   0.0000   0.0000   0.9946   1
1286.395   0.0000   0.0000   0.9946   1
1286.455   0.0000   0.0000   0.9946   1
1286.515   0.0000   0.0000   0.9946   1
1286.574   0.0000   0.0000   0.9946   1
1286.634   0.0000   0.0000   0.9946   1
1286.694   0.0000   0.0000   0.9946   1
1286.754   0.0000   0.0000   0.9946   1
1286.814   0.0000   0.0000   0.9946   1
1286.874   0.0000   0.0000   0.9946   1
1286.933   0.0000   0.0000   0.9947   1
1286.993   0.0000   0.0000   0.9947   1
1287.053   0.0000   0.0000   0.9947   1
1287.113   0.0000   0.0000   0.9947   1
1287.173   0.0000   0.0000   0.9947   1
1287.232   0.0000   0.0000   0.9947   1
1287.292   0.0000   0.0000   0.9947   1
1287.352   0.0000   0.0000   0.9947   1
1287.412   0.0000   0.0000   0.9947   1
1287.472   0.0000   0.0000   0.9947   1
1287.532   0.0000   0.0000   0.9947   1
1287.591   0.0000   0.0000   0.9948   1
1287.651   0.3996   0.1604   0.9948   1
1287.711   0.4234   0.1627   0.9948   1
1287.771   0.4226   0.1623   0.9948   1
1287.831   0.5629   0.1770   0.9948   1
1287.891   0.5159   0.1720   0.9948   1
1287.950   0.3980   0.1591   0.9948   1
1288.010   0.7294   0.1920   0.9948   1
1288.070   0.4459   0.1652   0.9948   1
1288.130   0.3981   0.1592   0.9948   1
1288.190   0.7963   0.3185   0.9948   1
1288.249   0.8444   0.3245   0.9949   1
1288.309   0.7034   0.3067   0.9949   1
1288.369   0.7034   0.3101   0.9949   1
1288.429   0.8453   0.3243   0.9949   1
1288.489   0.5129   0.2854   0.9949   1
1288.548   0.8946   0.3303   0.9949   1
1288.608   0.6577   0.3046   0.9949   1
1288.668   1.1305   0.3547   0.9949   1
1288.728   0.5592   0.2913   0.9949   1
1288.788   0.6094   0.2978   0.9949   1
1288.848   0.6589   0.3045   0.9949   1
1288.907   0.6113   0.2970   0.9949   1
1288.967   1.1826   0.3582   0.9950   1
1289.027   1.0398   0.3466   0.9950   1
1289.087   0.7544   0.3161   0.9950   1
1289.147   1.0892   0.3494   0.9950   1
1289.207   0.8987   0.3304   0.9950   1
1289.266   0.8981   0.3297   0.9950   1
1289.326   0.5657   0.2912   0.9950   1
1289.386   0.7572   0.3163   0.9950   1
1289.446   0.5215   0.2852   0.9950   1
1289.506   1.0487   0.3473   0.9950   1
1289.565   1.0479   0.3466   0.9950   1
1289.625   1.0474   0.3465   0.9950   1
1289.685   0.9059   0.3340   0.9951   1
1289.745   0.9087   0.3326   0.9951   1
1289.805   0.6696   0.3056   0.9951   1
1289.865   0.8613   0.3286   0.9951   1
1289.924   0.7177   0.3093   0.9951   1
1289.984   0.5738   0.2931   0.9951   1
1290.044   0.8136   0.3206   0.9951   1
1290.104   0.9087   0.3334   0.9951   1
1290.164   0.8126   0.3220   0.9951   1
1290.224   1.1499   0.3578   0.9951   1
1290.283   0.9579   0.3390   0.9951   1
1290.343   0.2395   0.1571   0.9951   1
1290.403   0.0000   0.0000   0.9952   1
1290.463   0.3341   0.2168   0.9952   1
1290.523   0.7627   0.3173   0.9952   1
1290.582   0.8550   0.2811   0.9952   1
1290.642   0.4950   0.1998   0.9952   1
1290.702   0.8051   0.2265   0.9952   1
1290.762   0.8981   0.2332   0.9952   1
1290.822   0.8976   0.2331   0.9952   1
1290.881   0.6826   0.2168   0.9952   1
1290.941   0.9199   0.2343   0.9952   1
1291.001   0.8964   0.2336   0.9952   1
1291.061   1.1098   0.2486   0.9952   1
1291.121   1.5176   0.2750   0.9952   1
1291.181   1.3497   0.2641   0.9953   1
1291.240   1.0159   0.2416   0.9953   1
1291.300   1.0166   0.2424   0.9953   1
1291.360   1.1841   0.2540   0.9953   1
1291.420   0.8514   0.2298   0.9953   1
1291.480   0.8741   0.2321   0.9953   1
1291.540   0.9441   0.2372   0.9953   1
1291.599   1.0375   0.2435   0.9953   1
1291.659   1.0853   0.2461   0.9953   1
1291.719   0.9929   0.2402   0.9953   1
1291.779   0.8523   0.2296   0.9953   1
1291.839   0.8522   0.2291   0.9953   1
1291.898   0.8521   0.2302   0.9953   1
1291.958   1.0649   0.2447   0.9953   1
1292.018   0.9936   0.2402   0.9954   1
1292.078   1.0901   0.2465   0.9954   1
1292.138   1.0906   0.2466   0.9954   1
1292.198   0.8297   0.2279   0.9954   1
1292.257   1.0441   0.2428   0.9954   1
1292.317   1.0434   0.2435   0.9954   1
1292.377   1.1146   0.2492   0.9954   1
1292.437   0.7808   0.2241   0.9954   1
1292.497   0.8996   0.2334   0.9954   1
1292.556   0.6605   0.2146   0.9954   1
1292.616   1.0178   0.2423   0.9954   1
1292.676   0.9989   0.2055   0.9954   1
1292.736   0.9740   0.1948   0.9954   1
1292.796   0.8793   0.1886   0.9955   1
1292.856   0.8635   0.1880   0.9955   1
1292.915   0.8797   0.1887   0.9955   1
1292.975   1.0697   0.2000   0.9955   1
1293.035   0.9742   0.1943   0.9955   1
1293.095   0.9423   0.1918   0.9955   1
1293.155   0.7681   0.1817   0.9955   1
1293.214   0.8931   0.1891   0.9955   1
1293.274   0.8374   0.2150   0.9955   1
1293.334   0.8202   0.2267   0.9955   1
1293.394   1.1037   0.2474   0.9955   1
1293.454   0.8606   0.1871   0.9955   1
1293.514   0.7677   0.1814   0.9955   1
1293.573   0.8788   0.1887   0.9955   1
1293.633   0.8313   0.1853   0.9955   1
1293.693   0.8796   0.1881   0.9956   1
1293.753   0.8792   0.1877   0.9956   1
1293.813   0.8789   0.1883   0.9956   1
1293.872   0.7210   0.1783   0.9956   1
1293.932   0.7374   0.1785   0.9956   1
1293.992   0.7379   0.1797   0.9956   1
1294.052   0.9896   0.1950   0.9956   1
1294.112   0.9104   0.1896   0.9956   1
1294.172   0.8154   0.1842   0.9956   1
1294.231   0.7676   0.1813   0.9956   1
1294.291   0.8785   0.1882   0.9956   1
1294.351   0.9272   0.1904   0.9956   1
1294.411   1.0854   0.2006   0.9956   1
1294.471   0.8648   0.1876   0.9956   1
1294.531   0.8968   0.1896   0.9957   1
1294.590   0.8314   0.1852   0.9957   1
1294.650   0.9733   0.1935   0.9957   1
1294.710   1.0524   0.1987   0.9957   1
1294.770   0.8787   0.1881   0.9957   1
1294.830   1.1629   0.2048   0.9957   1
1294.889   0.8318   0.1854   0.9957   1
1294.949   0.9111   0.1902   0.9957   1
1295.009   0.8322   0.1852   0.9957   1
1295.069   0.9895   0.1951   0.9957   1
1295.129   0.8477   0.1864   0.9957   1
1295.188   0.8172   0.1845   0.9957   1
1295.248   0.8185   0.1849   0.9957   1
1295.308   0.7864   0.1819   0.9957   1
1295.368   1.0775   0.2392   0.9957   1
1295.428   0.7432   0.2233   0.9958   1
1295.488   0.9979   0.2318   0.9958   1
1295.547   0.8562   0.1921   0.9958   1
1295.607   0.7235   0.1823   0.9958   1
1295.667   0.7239   0.1820   0.9958   1
1295.727   0.9774   0.1996   0.9958   1
1295.787   0.9449   0.1707   0.9958   1
1295.847   0.8011   0.1612   0.9958   1
1295.906   0.6545   0.1506   0.9958   1
1295.966   0.9171   0.1646   0.9958   1
1296.026   1.0834   0.1739   0.9958   1
1296.086   0.7995   0.1588   0.9958   1
1296.146   0.9412   0.1665   0.9958   1
1296.205   1.0484   0.1716   0.9958   1
1296.265   0.8102   0.1589   0.9958   1
1296.325   0.7162   0.1542   0.9958   1
1296.385   0.9543   0.1672   0.9959   1
1296.445   0.6936   0.1526   0.9959   1
1296.505   0.7767   0.1577   0.9959   1
1296.564   0.7659   0.1572   0.9959   1
1296.624   0.7666   0.1570   0.9959   1
1296.684   0.7085   0.1542   0.9959   1
1296.744   0.7562   0.1566   0.9959   1
