# Best-fit normalized data and profile from VoigtFit
# column 1 : Wavelength
# column 2 : Normalized flux
# column 3 : Normalized error
# column 4 : Best-fit profile
# column 5 : Pixel mask, 1=included, 0=excluded
1134.596   0.2154   0.3662   0.9980   1
1134.656   0.2167   0.3660   0.9980   1
1134.715   0.1442   0.3515   0.9980   1
1134.775   0.2177   0.3636   0.9980   1
1134.835   0.2440   0.3722   0.9980   1
1134.895   0.1721   0.3610   0.9980   1
1134.955   0.4964   0.4336   0.9980   1
1135.015   0.5127   0.4390   0.9980   1
1135.074   0.3942   0.4082   0.9980   1
1135.134   0.6453   0.4518   0.9980   1
1135.194   0.6340   0.4060   0.9980   1
1135.254   0.8004   0.3284   0.9980   1
1135.314   0.6371   0.3095   0.9980   1
1135.373   0.4792   0.2859   0.9980   1
1135.433   0.3671   0.2738   0.9980   1
1135.493   0.6971   0.3055   0.9979   1
1135.553   0.5860   0.2970   0.9979   1
1135.613   0.5112   0.2875   0.9979   1
1135.673   0.8384   0.3202   0.9979   1
1135.732   0.9826   0.3333   0.9979   1
1135.792   0.5800   0.2931   0.9979   1
1135.852   0.8322   0.3189   0.9979   1
1135.912   0.7215   0.3066   0.9979   1
1135.972   0.7206   0.3070   0.9979   1
1136.031   0.4313   0.2771   0.9979   1
1136.091   0.4656   0.2795   0.9979   1
1136.151   0.4291   0.2757   0.9979   1
1136.211   0.8583   0.3191   0.9979   1
1136.271   0.6134   0.2718   0.9979   1
1136.331   0.7616   0.3079   0.9979   1
1136.390   0.4056   0.2734   0.9979   1
1136.450   0.5687   0.2937   0.9979   1
1136.510   0.6100   0.2960   0.9979   1
1136.570   0.7888   0.3139   0.9979   1
1136.630   0.5421   0.2864   0.9979   1
1136.689   0.5263   0.2828   0.9979   1
1136.749   0.6298   0.2934   0.9979   1
1136.809   0.6294   0.2932   0.9979   1
1136.869   0.7684   0.3053   0.9979   1
1136.929   0.6103   0.2673   0.9979   1
1136.989   0.8288   0.2560   0.9979   1
1137.048   0.8026   0.2525   0.9979   1
1137.108   1.1559   0.2757   0.9979   1
1137.168   0.7784   0.2507   0.9979   1
1137.228   0.8067   0.2531   0.9979   1
1137.288   1.0559   0.2705   0.9979   1
1137.348   0.8440   0.2569   0.9978   1
1137.407   1.0071   0.2674   0.9978   1
1137.467   1.0633   0.2692   0.9978   1
1137.527   0.8883   0.2576   0.9978   1
1137.587   1.0427   0.2667   0.9978   1
1137.647   0.8543   0.2533   0.9978   1
1137.706   0.9198   0.2581   0.9978   1
1137.766   1.2420   0.2781   0.9978   1
1137.826   1.1241   0.2708   0.9978   1
1137.886   1.0314   0.2654   0.9978   1
1137.946   1.3288   0.2841   0.9978   1
1138.005   0.7988   0.2488   0.9978   1
1138.065   1.0388   0.2696   0.9978   1
1138.125   0.8463   0.2573   0.9978   1
1138.185   1.0939   0.2797   0.9978   1
1138.245   1.1719   0.2857   0.9978   1
1138.305   0.8851   0.2613   0.9978   1
1138.365   0.9512   0.2631   0.9978   1
1138.424   0.7365   0.2478   0.9978   1
1138.484   0.9454   0.2627   0.9978   1
1138.544   0.8807   0.2528   0.9978   1
1138.604   0.7607   0.2417   0.9978   1
1138.664   0.9158   0.2541   0.9978   1
1138.723   0.6694   0.2358   0.9978   1
1138.783   0.7126   0.2390   0.9978   1
1138.843   0.8077   0.2453   0.9978   1
1138.903   0.8696   0.2513   0.9978   1
1138.963   0.8385   0.2505   0.9978   1
1139.022   0.6514   0.2360   0.9978   1
1139.082   0.8077   0.2469   0.9978   1
1139.142   1.0896   0.2651   0.9977   1
1139.202   0.8469   0.2478   0.9977   0
1139.262   0.9247   0.2498   0.9977   0
1139.322   0.6813   0.2340   0.9977   0
1139.381   0.9675   0.2543   0.9977   0
1139.441   0.8582   0.2476   0.9977   0
1139.501   1.0376   0.2587   0.9977   0
1139.561   0.7991   0.2431   0.9977   0
1139.621   0.8357   0.2468   0.9977   0
1139.681   0.8213   0.2469   0.9977   0
1139.740   0.7970   0.2433   0.9977   0
1139.800   0.6757   0.2359   0.9977   0
1139.860   0.8683   0.2508   0.9977   0
1139.920   0.9294   0.2572   0.9977   0
1139.980   0.9091   0.2557   0.9977   0
1140.039   0.9354   0.2561   0.9977   0
1140.099   0.8343   0.2479   0.9977   0
1140.159   0.8660   0.2508   0.9977   0
1140.219   0.6441   0.2333   0.9977   0
1140.279   0.7375   0.2218   0.9977   0
1140.339   0.8962   0.2139   0.9977   0
1140.398   0.7200   0.2032   0.9977   0
1140.458   0.8891   0.2136   0.9977   0
1140.518   0.8633   0.2126   0.9977   0
1140.578   0.6964   0.2009   0.9977   0
1140.638   0.7274   0.2043   0.9977   0
1140.698   0.8330   0.2097   0.9977   0
1140.757   0.6650   0.1979   0.9977   0
1140.817   0.6781   0.1987   0.9976   0
1140.877   0.7418   0.2026   0.9976   0
1140.937   0.6935   0.1990   0.9976   0
1140.997   0.9184   0.2131   0.9976   0
1141.056   0.6103   0.1943   0.9976   0
1141.116   0.8356   0.2082   0.9976   0
1141.176   0.6416   0.1950   0.9976   0
1141.236   0.7077   0.1998   0.9976   0
1141.296   0.5426   0.1894   0.9976   0
1141.355   0.6307   0.1971   0.9976   0
1141.415   0.6570   0.1990   0.9976   0
1141.475   0.5472   0.1917   0.9976   0
1141.535   0.5453   0.1897   0.9976   0
1141.595   0.7491   0.2020   0.9976   0
1141.655   0.5850   0.1908   0.9976   0
1141.714   0.6632   0.1958   0.9976   0
1141.774   0.6620   0.1953   0.9976   0
1141.834   0.6301   0.1929   0.9976   0
1141.894   0.7097   0.1981   0.9976   0
1141.954   0.9610   0.2128   0.9976   0
1142.014   0.7553   0.2007   0.9976   0
1142.073   0.9823   0.2144   0.9976   0
1142.133   0.8123   0.2062   0.9976   0
1142.193   0.8272   0.2074   0.9976   0
1142.253   0.6806   0.1975   0.9976   0
1142.313   0.6766   0.1977   0.9976   0
1142.372   0.7132   0.1983   0.9975   0
1142.432   0.7272   0.1983   0.9975   0
1142.492   0.6578   0.1929   0.9975   0
1142.552   0.7810   0.2011   0.9975   0
1142.612   0.7487   0.1983   0.9975   0
1142.672   0.8569   0.2051   0.9975   0
1142.731   0.7158   0.1966   0.9975   0
1142.791   0.8246   0.2034   0.9975   0
1142.851   0.8703   0.2061   0.9975   0
1142.911   0.6675   0.1934   0.9975   0
1142.971   0.6830   0.1939   0.9975   0
1143.030   0.5803   0.1871   0.9975   0
1143.090   0.7578   0.2005   0.9975   0
1143.150   0.5539   0.1890   0.9975   0
1143.210   0.4546   0.1806   0.9975   0
1143.270   0.4982   0.1856   0.9975   0
1143.330   0.6082   0.1934   0.9975   0
1143.389   0.5337   0.1880   0.9975   0
1143.449   0.7247   0.2018   0.9975   0
1143.509   0.5219   0.1875   0.9975   0
1143.569   0.5991   0.1924   0.9975   0
1143.629   0.6563   0.1946   0.9975   0
1143.688   0.5432   0.1845   0.9975   0
1143.748   0.6056   0.1881   0.9975   0
1143.808   0.6293   0.1884   0.9974   0
1143.868   0.7343   0.1968   0.9974   0
1143.928   0.5207   0.1824   0.9974   0
1143.988   0.6162   0.1900   0.9974   0
1144.047   0.5945   0.1870   0.9974   0
1144.107   0.6511   0.1898   0.9974   0
1144.167   0.7468   0.1955   0.9974   0
1144.227   0.4703   0.1765   0.9974   0
1144.287   0.5757   0.1842   0.9974   0
1144.346   0.4996   0.1786   0.9974   0
1144.406   0.3774   0.1696   0.9974   0
1144.466   0.3468   0.1672   0.9974   0
1144.526   0.5441   0.1811   0.9974   0
1144.586   0.4076   0.1710   0.9974   0
1144.646   0.5784   0.1836   0.9974   0
1144.705   0.5730   0.1840   0.9974   0
1144.765   0.2939   0.1632   0.9974   0
1144.825   0.2931   0.1634   0.9974   0
1144.885   0.1363   0.1491   0.9974   0
1144.945   0.1798   0.1526   0.9974   0
1145.005   0.4341   0.1733   0.9974   0
1145.064   0.2381   0.1576   0.9974   0
1145.124   0.3736   0.1682   0.9974   0
1145.184   0.4183   0.1716   0.9973   0
1145.244   0.4191   0.1712   0.9973   0
1145.304   0.3133   0.1631   0.9973   0
1145.363   0.2226   0.1555   0.9973   0
1145.423   0.3285   0.1646   0.9973   0
1145.483   0.5261   0.1783   0.9973   0
1145.543   0.4974   0.1763   0.9973   0
1145.603   0.6825   0.1895   0.9973   0
1145.662   0.5622   0.1813   0.9973   0
1145.722   0.5913   0.1838   0.9973   0
1145.782   0.6440   0.1858   0.9973   0
1145.842   0.4888   0.1758   0.9973   0
1145.902   0.6808   0.1878   0.9973   0
1145.962   0.5022   0.1759   0.9973   0
1146.021   0.4872   0.1745   0.9973   0
1146.081   0.5614   0.1800   0.9973   0
1146.141   0.5461   0.1786   0.9973   0
1146.201   0.6500   0.1856   0.9973   0
1146.261   0.3676   0.1654   0.9973   0
1146.321   0.4426   0.1714   0.9973   0
1146.380   0.4990   0.1761   0.9973   0
1146.440   0.6546   0.1869   0.9973   0
1146.500   0.6201   0.1854   0.9972   0
1146.560   0.5136   0.1792   0.9972   0
1146.620   0.4874   0.1761   0.9972   0
1146.679   0.5762   0.1832   0.9972   0
1146.739   0.4660   0.1747   0.9972   0
1146.799   0.4182   0.1708   0.9972   0
1146.859   0.4016   0.1699   0.9972   0
1146.919   0.4000   0.1689   0.9972   0
1146.979   0.6057   0.1819   0.9972   0
1147.038   0.4695   0.1717   0.9972   0
1147.098   0.4403   0.1694   0.9972   0
1147.158   0.4137   0.1678   0.9972   0
1147.218   0.5565   0.1789   0.9972   0
1147.278   0.5173   0.1771   0.9972   0
1147.338   0.5010   0.1751   0.9972   0
1147.397   0.7054   0.1887   0.9972   1
1147.457   0.7257   0.1888   0.9972   1
1147.517   0.6739   0.1853   0.9972   1
1147.577   0.8773   0.1970   0.9972   1
1147.637   0.7746   0.1915   0.9972   1
1147.696   0.8479   0.1952   0.9971   1
1147.756   0.8176   0.1936   0.9971   1
1147.816   0.7250   0.1740   0.9971   1
1147.876   1.1094   0.2090   0.9971   1
1147.936   1.0926   0.2082   0.9971   1
1147.995   0.9456   0.2007   0.9971   1
1148.055   0.9763   0.2022   0.9971   1
1148.115   0.8880   0.1969   0.9971   1
1148.175   0.8734   0.1963   0.9971   1
1148.235   0.6766   0.1855   0.9971   1
1148.295   0.8416   0.1974   0.9971   1
1148.354   1.0420   0.2086   0.9971   1
1148.414   0.9355   0.2022   0.9971   1
1148.474   1.1490   0.2137   0.9971   1
1148.534   0.8074   0.1946   0.9971   1
1148.594   0.9279   0.2018   0.9971   1
1148.654   0.9080   0.1993   0.9971   1
1148.713   1.0861   0.2067   0.9971   1
1148.773   1.0409   0.2041   0.9971   1
1148.833   0.9832   0.2014   0.9971   1
1148.893   0.9671   0.1993   0.9970   1
1148.953   1.0394   0.2037   0.9970   1
1149.012   0.7920   0.1901   0.9970   1
1149.072   0.9646   0.2000   0.9970   1
1149.132   0.8484   0.1930   0.9970   1
1149.192   1.0636   0.2040   0.9970   1
1149.252   0.8182   0.1909   0.9970   1
1149.312   1.0629   0.2043   0.9970   1
1149.371   1.1347   0.2077   0.9970   1
1149.431   0.8317   0.1916   0.9970   1
1149.491   1.0471   0.2030   0.9970   1
1149.551   0.9882   0.1998   0.9970   1
1149.611   1.0159   0.2019   0.9970   1
1149.670   0.9861   0.1999   0.9970   1
1149.730   0.7701   0.1878   0.9970   1
1149.790   0.8409   0.1911   0.9970   1
1149.850   0.9262   0.1961   0.9970   1
1149.910   0.8551   0.1921   0.9970   1
1149.970   0.9544   0.1968   0.9969   1
1150.029   0.8116   0.1881   0.9969   1
1150.089   0.9397   0.1953   0.9969   1
1150.149   0.9245   0.1956   0.9969   1
1150.209   0.8941   0.1935   0.9969   1
1150.269   0.9354   0.1963   0.9969   1
1150.328   1.0768   0.2031   0.9969   1
1150.388   1.0637   0.2025   0.9969   1
1150.448   1.1337   0.2060   0.9969   1
1150.508   0.8488   0.1904   0.9969   1
1150.568   1.0758   0.2028   0.9969   1
1150.628   0.9610   0.1965   0.9969   1
1150.687   0.8034   0.1871   0.9969   1
1150.747   1.0581   0.2014   0.9969   1
1150.807   1.2263   0.2098   0.9969   1
1150.867   0.7870   0.1857   0.9969   1
1150.927   0.8987   0.1923   0.9969   1
1150.986   0.9969   0.1977   0.9969   1
1151.046   1.0112   0.1980   0.9968   1
1151.106   1.1375   0.2048   0.9968   1
1151.166   1.1645   0.2061   0.9968   1
1151.226   0.8818   0.1913   0.9968   1
1151.286   0.8245   0.1878   0.9968   1
1151.345   0.9362   0.1939   0.9968   1
1151.405   1.0053   0.1972   0.9968   0
1151.465   0.8920   0.1909   0.9968   0
1151.525   0.7823   0.1844   0.9968   0
1151.585   0.9275   0.1933   0.9968   0
1151.645   0.7876   0.1882   0.9968   0
1151.704   0.9952   0.2017   0.9968   0
1151.764   0.9861   0.2013   0.9968   0
1151.824   1.0361   0.2048   0.9968   0
1151.884   1.1077   0.2079   0.9968   0
1151.944   0.9980   0.2015   0.9968   0
1152.003   1.0233   0.2028   0.9968   0
1152.063   0.8576   0.1905   0.9967   0
1152.123   0.8197   0.1864   0.9967   0
1152.183   0.6751   0.1765   0.9967   0
1152.243   0.8548   0.1874   0.9967   0
1152.302   0.8126   0.1845   0.9967   0
1152.362   0.9778   0.1939   0.9967   0
1152.422   0.9650   0.1927   0.9967   0
1152.482   0.8119   0.1838   0.9967   0
1152.542   1.0176   0.1956   0.9967   0
1152.602   0.9891   0.1936   0.9967   0
1152.661   0.8375   0.1851   0.9967   0
1152.721   0.8229   0.1836   0.9967   0
1152.781   0.6427   0.1730   0.9967   0
1152.841   0.5327   0.1660   0.9967   0
1152.901   0.7668   0.1809   0.9967   0
1152.961   0.7520   0.1799   0.9967   0
1153.020   0.6007   0.1702   0.9966   0
1153.080   0.6686   0.1744   0.9966   0
1153.140   0.6958   0.1760   0.9966   0
1153.200   0.9006   0.1873   0.9966   0
1153.260   0.8591   0.1855   0.9966   0
1153.319   0.6800   0.1746   0.9966   0
1153.379   0.7206   0.1769   0.9966   0
1153.439   0.8836   0.1864   0.9966   0
1153.499   0.9517   0.1896   0.9966   0
1153.559   1.0056   0.1931   0.9966   0
1153.619   0.8547   0.1846   0.9966   0
1153.678   1.0720   0.1965   0.9966   0
1153.738   1.2345   0.2041   0.9966   0
1153.798   1.1106   0.1977   0.9966   0
1153.858   1.0415   0.1937   0.9966   0
1153.918   1.0132   0.1920   0.9965   0
1153.978   1.0391   0.1936   0.9965   0
1154.037   0.7536   0.1783   0.9965   0
1154.097   0.8324   0.1821   0.9965   0
1154.157   0.8181   0.1810   0.9965   0
1154.217   0.9116   0.1860   0.9965   0
1154.277   0.9116   0.1866   0.9965   0
1154.336   0.8303   0.1812   0.9965   0
1154.396   0.8696   0.1833   0.9965   0
1154.456   0.7614   0.1770   0.9965   0
1154.516   0.6000   0.1673   0.9965   0
1154.576   0.6808   0.1723   0.9965   0
1154.635   0.9219   0.1857   0.9965   0
1154.695   0.8005   0.1800   0.9965   0
1154.755   0.8000   0.1794   0.9965   0
1154.815   0.9197   0.1852   0.9964   0
1154.875   0.9738   0.1892   0.9964   0
1154.935   0.7770   0.1789   0.9964   0
1154.994   0.7886   0.1812   0.9964   0
1155.054   1.0145   0.1940   0.9964   0
1155.114   0.7770   0.1791   0.9964   0
1155.174   0.7758   0.1792   0.9964   0
1155.234   0.9343   0.1884   0.9964   0
1155.294   0.8176   0.1805   0.9964   0
1155.353   0.8911   0.1837   0.9964   0
1155.413   0.6859   0.1715   0.9964   0
1155.473   0.6857   0.1710   0.9964   0
1155.533   0.8297   0.1796   0.9964   0
1155.593   0.7757   0.1767   0.9964   0
1155.652   0.8141   0.1785   0.9963   0
1155.712   0.8001   0.1776   0.9963   0
1155.772   0.7340   0.1734   0.9963   0
1155.832   0.7472   0.1741   0.9963   0
1155.892   0.7332   0.1733   0.9963   0
1155.952   0.6932   0.1704   0.9963   0
1156.011   0.6796   0.1692   0.9963   0
1156.071   0.6794   0.1700   0.9963   0
1156.131   0.6921   0.1705   0.9963   0
1156.191   0.6523   0.1682   0.9963   0
1156.251   0.9133   0.1822   0.9963   0
1156.310   0.7429   0.1721   0.9963   0
1156.370   0.6633   0.1683   0.9963   0
1156.430   0.7541   0.1732   0.9963   0
1156.490   0.6623   0.1680   0.9962   0
1156.550   0.6744   0.1688   0.9962   0
1156.610   0.7780   0.1753   0.9962   0
1156.669   0.6889   0.1714   0.9962   0
1156.729   0.7670   0.1766   0.9962   0
1156.789   0.7674   0.1765   0.9962   0
1156.849   0.7305   0.1742   0.9962   0
1156.909   0.6615   0.1696   0.9962   0
1156.969   0.7600   0.1753   0.9962   0
1157.028   0.9052   0.1832   0.9962   0
1157.088   0.9654   0.1846   0.9962   0
1157.148   0.6289   0.1648   0.9962   0
1157.208   0.6666   0.1671   0.9962   0
1157.268   0.8342   0.1772   0.9961   0
1157.327   0.5511   0.1596   0.9961   0
1157.387   0.6151   0.1639   0.9961   0
1157.447   0.6016   0.1628   0.9961   0
1157.507   0.6658   0.1666   0.9961   0
1157.567   0.5628   0.1602   0.9961   0
1157.626   0.8584   0.1774   0.9961   0
1157.686   0.9090   0.1809   0.9961   0
1157.746   0.8306   0.1756   0.9961   0
1157.806   0.5471   0.1590   0.9961   0
1157.866   0.7780   0.1728   0.9961   0
1157.926   0.8299   0.1851   0.9961   0
1157.985   0.7833   0.2007   0.9960   0
1158.045   0.6804   0.1930   0.9960   0
1158.105   0.7823   0.1986   0.9960   0
1158.165   0.6804   0.1927   0.9960   0
1158.225   0.9180   0.2087   0.9960   0
1158.285   0.7421   0.1934   0.9960   0
1158.344   0.7993   0.1732   0.9960   0
1158.404   0.8635   0.1769   0.9960   0
1158.464   0.7351   0.1702   0.9960   0
1158.524   0.7345   0.1696   0.9960   0
1158.584   0.9368   0.1806   0.9960   0
1158.643   0.8220   0.1743   0.9960   0
1158.703   0.9741   0.1827   0.9959   0
1158.763   0.7449   0.1704   0.9959   0
1158.823   0.7062   0.1680   0.9959   0
1158.883   0.9713   0.1820   0.9959   0
1158.943   0.9073   0.1788   0.9959   0
1159.002   0.7041   0.1677   0.9959   0
1159.062   0.7540   0.1697   0.9959   0
1159.122   0.7785   0.1712   0.9959   0
1159.182   0.6774   0.1649   0.9959   0
1159.242   0.7022   0.1663   0.9959   0
1159.302   0.7774   0.1703   0.9959   0
1159.361   0.9285   0.1797   0.9959   0
1159.421   0.9569   0.1675   0.9958   0
1159.481   0.7513   0.1691   0.9958   0
1159.541   0.8895   0.1772   0.9958   0
1159.601   0.8392   0.1733   0.9958   0
1159.660   1.0781   0.1864   0.9958   0
1159.720   0.6614   0.1633   0.9958   0
1159.780   0.6738   0.1643   0.9958   0
1159.840   0.6858   0.1651   0.9958   0
1159.900   0.7378   0.1685   0.9958   0
1159.959   0.7522   0.1698   0.9958   0
1160.019   0.7595   0.1719   0.9958   0
1160.079   0.5502   0.1601   0.9957   0
1160.139   0.6880   0.1692   0.9957   0
1160.199   0.7717   0.1745   0.9957   0
1160.259   0.6981   0.1701   0.9957   0
1160.318   0.7864   0.1755   0.9957   0
1160.378   0.7130   0.1717   0.9957   0
1160.438   0.7237   0.1693   0.9957   0
1160.498   0.8300   0.1753   0.9957   0
1160.558   0.7029   0.1670   0.9957   0
1160.618   0.9882   0.1814   0.9957   0
1160.677   0.9322   0.1783   0.9957   0
1160.737   0.9445   0.1786   0.9956   0
1160.797   0.9317   0.1786   0.9956   0
1160.857   0.9938   0.1817   0.9956   0
1160.917   0.8567   0.1738   0.9956   0
1160.976   0.8817   0.1759   0.9956   0
1161.036   0.9048   0.1766   0.9956   0
1161.096   0.7807   0.1701   0.9956   0
1161.156   0.8640   0.1924   0.9956   0
1161.216   0.9738   0.2075   0.9956   0
1161.276   1.1054   0.2150   0.9956   0
1161.335   0.8240   0.1981   0.9955   0
1161.395   1.0712   0.2135   0.9955   0
1161.455   0.7904   0.1968   0.9955   0
1161.515   0.8027   0.1815   0.9955   0
1161.575   0.7659   0.1687   0.9955   0
1161.634   0.7529   0.1675   0.9955   0
1161.694   0.6910   0.1640   0.9955   0
1161.754   0.7276   0.1659   0.9955   0
1161.814   0.7640   0.1682   0.9955   0
1161.874   0.8990   0.1756   0.9955   0
1161.934   0.6265   0.1602   0.9955   0
1161.993   0.9111   0.1760   0.9954   0
1162.053   0.8986   0.1754   0.9954   0
1162.113   0.7987   0.1697   0.9954   0
1162.173   0.8352   0.1720   0.9954   0
1162.233   0.8225   0.1713   0.9954   0
1162.292   0.6988   0.1639   0.9954   0
1162.352   0.7605   0.1673   0.9954   0
1162.412   0.8583   0.1726   0.9954   0
1162.472   1.0054   0.1805   0.9954   0
1162.532   0.7468   0.1663   0.9953   0
1162.592   0.5376   0.1534   0.9953   0
1162.651   0.9065   0.1751   0.9953   0
1162.711   0.8574   0.1724   0.9953   0
1162.771   0.9294   0.1761   0.9953   0
1162.831   0.9658   0.1776   0.9953   0
1162.891   0.7242   0.1831   0.9953   0
1162.950   0.8136   0.1968   0.9953   0
1163.010   0.8791   0.1998   0.9953   0
1163.070   0.8138   0.1957   0.9953   0
1163.130   0.6332   0.1840   0.9952   0
1163.190   0.7633   0.1926   0.9952   0
1163.250   0.8890   0.1869   0.9952   0
1163.309   0.9226   0.1768   0.9952   0
1163.369   0.7905   0.1706   0.9952   0
1163.429   0.7293   0.1671   0.9952   0
1163.489   0.6486   0.1620   0.9952   0
1163.549   0.6636   0.1630   0.9952   0
1163.609   0.8730   0.1759   0.9952   0
1163.668   0.7549   0.1687   0.9951   0
1163.728   0.5821   0.1579   0.9951   0
1163.788   0.7205   0.1646   0.9951   0
1163.848   0.7533   0.1660   0.9951   0
1163.908   0.6808   0.1612   0.9951   0
1163.967   0.6322   0.1586   0.9951   0
1164.027   0.6924   0.1611   0.9951   0
1164.087   0.6681   0.1608   0.9951   0
1164.147   0.7159   0.1635   0.9951   0
1164.207   0.7510   0.1651   0.9950   0
1164.266   0.8237   0.1695   0.9950   0
1164.326   0.9319   0.1754   0.9950   1
1164.386   0.8951   0.1731   0.9950   1
1164.446   0.7267   0.1640   0.9950   1
1164.506   0.6539   0.1597   0.9950   1
1164.566   0.7989   0.1677   0.9950   1
1164.625   0.5673   0.1545   0.9950   1
1164.685   0.7847   0.1672   0.9949   1
1164.745   0.7831   0.1667   0.9949   1
1164.805   0.7718   0.1663   0.9949   1
1164.865   0.8316   0.1696   0.9949   1
1164.925   0.7566   0.1651   0.9949   1
1164.984   0.9018   0.1726   0.9949   1
1165.044   0.7641   0.1665   0.9949   1
1165.104   1.0071   0.1809   0.9949   1
1165.164   1.0231   0.1820   0.9949   1
1165.224   0.8537   0.1730   0.9948   1
1165.283   0.7680   0.1683   0.9948   1
1165.343   0.8855   0.1743   0.9948   1
1165.403   0.9463   0.1773   0.9948   1
1165.463   1.0223   0.1811   0.9948   1
1165.523   0.9310   0.1749   0.9948   1
1165.583   0.9467   0.1747   0.9948   1
1165.642   0.8965   0.1714   0.9948   1
1165.702   1.0290   0.1791   0.9947   1
1165.762   0.9330   0.1736   0.9947   1
1165.822   1.1722   0.1858   0.9947   1
1165.882   0.7278   0.1623   0.9947   1
1165.942   0.7152   0.1619   0.9947   1
1166.001   1.0031   0.1773   0.9947   1
1166.061   0.7862   0.1659   0.9947   1
1166.121   0.9644   0.1751   0.9947   1
1166.181   1.1082   0.1821   0.9946   1
1166.241   0.8890   0.1931   0.9946   1
1166.300   0.9049   0.1981   0.9946   1
1166.360   0.9369   0.2003   0.9946   1
1166.420   1.1591   0.2127   0.9946   1
1166.480   0.9993   0.2041   0.9946   1
1166.540   0.9665   0.2019   0.9946   1
1166.599   0.7243   0.1684   0.9946   1
1166.659   0.8644   0.1689   0.9945   1
1166.719   1.1018   0.1809   0.9945   1
1166.779   0.6965   0.1598   0.9945   1
1166.839   0.8626   0.1691   0.9945   1
1166.899   0.9211   0.1722   0.9945   0
1166.958   0.9089   0.1717   0.9945   0
1167.018   0.7780   0.1643   0.9945   0
1167.078   0.7660   0.1632   0.9944   0
1167.138   0.9200   0.1719   0.9944   0
1167.198   0.7654   0.1631   0.9944   0
1167.258   0.9192   0.1717   0.9944   0
1167.317   0.8831   0.1698   0.9944   0
1167.377   0.7061   0.1596   0.9944   0
1167.437   0.7882   0.1645   0.9944   0
1167.497   0.8945   0.1702   0.9943   0
1167.557   0.6928   0.1595   0.9943   0
1167.616   0.8585   0.1684   0.9943   0
1167.676   0.8349   0.1668   0.9943   0
1167.736   1.0115   0.1756   0.9943   0
1167.796   0.6804   0.1584   0.9943   0
1167.856   0.6561   0.1568   0.9943   0
1167.916   0.8792   0.1692   0.9942   0
1167.975   0.5851   0.1525   0.9942   0
1168.035   0.8089   0.1649   0.9942   0
1168.095   0.6200   0.1544   0.9942   0
1168.155   0.5729   0.1514   0.9942   0
1168.215   0.5962   0.1523   0.9942   0
1168.274   0.5262   0.1488   0.9942   0
1168.334   0.5496   0.1495   0.9941   0
1168.394   0.5904   0.1529   0.9941   0
1168.454   0.6735   0.1596   0.9941   0
1168.514   0.8684   0.1727   0.9941   0
1168.574   0.6312   0.1587   0.9941   0
1168.633   0.4553   0.1464   0.9941   0
1168.693   0.6559   0.1611   0.9941   0
1168.753   0.6234   0.1582   0.9940   0
1168.813   0.7839   0.1672   0.9940   0
1168.873   0.8891   0.1723   0.9940   0
1168.932   0.8131   0.1664   0.9940   0
1168.992   0.8057   0.1646   0.9940   0
1169.052   0.7011   0.1585   0.9940   0
1169.112   0.6976   0.1576   0.9940   0
1169.172   0.5583   0.1499   0.9939   0
1169.232   0.7572   0.1615   0.9939   0
1169.291   0.7094   0.1586   0.9939   0
1169.351   0.6270   0.1538   0.9939   0
1169.411   0.9185   0.1699   0.9939   0
1169.471   0.6952   0.1576   0.9939   0
1169.531   0.7521   0.1608   0.9938   0
1169.590   0.6576   0.1549   0.9938   0
1169.650   0.5294   0.1466   0.9938   0
1169.710   0.6336   0.1538   0.9938   0
1169.770   0.4831   0.1444   0.9938   0
1169.830   0.5759   0.1506   0.9938   0
1169.890   0.6340   0.1538   0.9937   0
1169.949   0.7034   0.1575   0.9937   0
1170.009   0.5404   0.1477   0.9937   0
1170.069   0.6447   0.1539   0.9937   0
1170.129   0.6911   0.1561   0.9937   0
1170.189   0.6095   0.1520   0.9937   0
1170.249   0.7247   0.1581   0.9936   0
1170.308   0.6098   0.1517   0.9936   0
1170.368   0.7366   0.1589   0.9936   0
1170.428   0.7129   0.1574   0.9936   0
1170.488   0.6784   0.1556   0.9936   0
1170.548   0.7130   0.1579   0.9936   0
1170.607   0.7356   0.1588   0.9935   0
1170.667   0.5044   0.1446   0.9935   0
1170.727   0.6772   0.1554   0.9935   0
1170.787   0.8493   0.1648   0.9935   0
1170.847   0.7216   0.1578   0.9935   0
1170.906   0.5375   0.1471   0.9935   0
1170.966   0.7070   0.1452   0.9934   0
1171.026   0.7792   0.1609   0.9934   0
1171.086   0.7671   0.1601   0.9934   0
1171.146   0.6983   0.1556   0.9934   0
1171.206   0.5722   0.1491   0.9934   0
1171.266   0.5145   0.1452   0.9934   0
1171.325   0.6986   0.1564   0.9933   0
1171.385   0.6871   0.1555   0.9933   0
1171.445   0.7320   0.1585   0.9933   0
1171.505   0.6050   0.1510   0.9933   0
1171.565   0.5133   0.1451   0.9933   0
1171.624   0.6061   0.1510   0.9932   0
1171.684   0.5843   0.1503   0.9932   0
1171.744   0.7275   0.1601   0.9932   0
1171.804   0.6876   0.1575   0.9932   0
1171.864   0.6781   0.1578   0.9932   0
1171.923   0.5648   0.1505   0.9932   0
1171.983   0.5416   0.1487   0.9931   0
1172.043   0.7212   0.1600   0.9931   0
1172.103   0.6455   0.1552   0.9931   0
1172.163   0.7169   0.1582   0.9931   0
1172.223   0.6671   0.1550   0.9931   0
1172.282   0.5447   0.1468   0.9930   0
1172.342   0.4409   0.1401   0.9930   0
1172.402   0.5212   0.1452   0.9930   0
1172.462   0.5675   0.1483   0.9930   0
1172.522   0.6362   0.1519   0.9930   0
1172.582   0.4763   0.1424   0.9929   0
1172.641   0.4871   0.1424   0.9929   0
1172.701   0.5445   0.1467   0.9929   0
1172.761   0.6587   0.1529   0.9929   0
1172.821   0.7049   0.1566   0.9929   0
1172.881   0.5331   0.1462   0.9929   0
1172.940   0.5222   0.1457   0.9928   0
1173.000   0.5805   0.1488   0.9928   0
1173.060   0.5119   0.1446   0.9928   0
1173.120   0.6152   0.1517   0.9928   0
1173.180   0.6498   0.1535   0.9928   0
1173.240   0.5126   0.1446   0.9927   0
1173.299   0.5472   0.1472   0.9927   0
1173.359   0.5264   0.1458   0.9927   0
1173.419   0.5608   0.1491   0.9927   0
1173.479   0.5959   0.1519   0.9926   0
1173.539   0.4938   0.1458   0.9926   0
1173.599   0.6657   0.1566   0.9926   0
1173.658   0.5169   0.1475   0.9926   0
1173.718   0.4566   0.1436   0.9926   0
1173.778   0.5298   0.1479   0.9925   0
1173.838   0.5983   0.1525   0.9925   0
1173.898   0.8807   0.1676   0.9925   0
1173.957   0.6341   0.1531   0.9925   0
1174.017   0.4783   0.1433   0.9925   0
1174.077   0.6046   0.1508   0.9924   0
1174.137   0.5252   0.1466   0.9924   0
1174.197   0.5137   0.1457   0.9924   0
1174.256   0.3647   0.1354   0.9924   0
1174.316   0.4220   0.1397   0.9924   0
1174.376   0.4563   0.1418   0.9923   0
1174.436   0.5598   0.1481   0.9923   0
1174.496   0.4100   0.1386   0.9923   0
1174.556   0.2951   0.1300   0.9923   0
1174.615   0.2955   0.1306   0.9922   0
1174.675   0.3872   0.1370   0.9922   0
1174.735   0.4677   0.1426   0.9922   0
1174.795   0.4925   0.1440   0.9922   0
1174.855   0.4120   0.1392   0.9921   0
1174.915   0.3316   0.1333   0.9921   0
1174.974   0.4577   0.1425   0.9921   0
1175.034   0.3315   0.1338   0.9921   0
1175.094   0.4813   0.1437   0.9921   0
1175.154   0.3659   0.1358   0.9920   0
1175.214   0.4230   0.1397   0.9920   0
1175.273   0.2615   0.1283   0.9920   0
1175.333   0.4563   0.1419   0.9920   0
1175.393   0.4673   0.1431   0.9919   0
1175.453   0.3757   0.1367   0.9919   0
1175.513   0.4452   0.1417   0.9919   0
1175.573   0.4683   0.1432   0.9919   0
1175.632   0.5945   0.1505   0.9918   0
1175.692   0.3184   0.1323   0.9918   0
1175.752   0.4219   0.1399   0.9918   0
1175.812   0.4567   0.1424   0.9918   0
1175.872   0.3876   0.1382   0.9917   0
1175.931   0.4339   0.1411   0.9917   0
1175.991   0.3881   0.1374   0.9917   0
1176.051   0.3996   0.1387   0.9917   0
1176.111   0.5037   0.1455   0.9916   0
1176.171   0.3081   0.1321   0.9916   0
1176.231   0.2622   0.1288   0.9916   0
1176.290   0.3086   0.1326   0.9916   0
1176.350   0.3323   0.1343   0.9915   0
1176.410   0.3317   0.1340   0.9915   0
1176.470   0.2978   0.1313   0.9915   0
1176.530   0.2630   0.1286   0.9915   0
1176.589   0.3326   0.1342   0.9914   0
1176.649   0.3097   0.1322   0.9914   0
1176.709   0.2761   0.1306   0.9914   0
1176.769   0.3434   0.1360   0.9914   0
1176.829   0.4483   0.1443   0.9913   0
1176.889   0.2750   0.1320   0.9913   0
1176.948   0.2573   0.1321   0.9913   0
1177.008   0.3347   0.1383   0.9913   0
1177.068   0.2832   0.1340   0.9912   0
1177.128   0.2027   0.1266   0.9912   0
1177.188   0.3678   0.1402   0.9912   0
1177.247   0.1853   0.1247   0.9912   0
1177.307   0.2647   0.1311   0.9911   0
1177.367   0.2115   0.1259   0.9911   0
1177.427   0.2654   0.1302   0.9911   0
1177.487   0.1955   0.1242   0.9910   0
1177.547   0.2539   0.1294   0.9910   0
1177.606   0.4520   0.1431   0.9910   0
1177.666   0.3009   0.1323   0.9910   0
1177.726   0.2435   0.1284   0.9909   0
1177.786   0.2785   0.1314   0.9909   0
1177.846   0.2320   0.1271   0.9909   0
1177.906   0.3607   0.1377   0.9908   0
1177.965   0.3256   0.1349   0.9908   0
1178.025   0.3026   0.1329   0.9908   0
1178.085   0.2913   0.1325   0.9908   0
1178.145   0.3614   0.1378   0.9907   0
1178.205   0.4782   0.1458   0.9907   0
1178.264   0.3847   0.1397   0.9907   0
1178.324   0.3735   0.1387   0.9906   0
1178.384   0.2793   0.1319   0.9906   0
1178.444   0.5135   0.1482   0.9906   0
1178.504   0.5482   0.1504   0.9906   0
1178.563   0.4434   0.1437   0.9905   0
1178.623   0.5727   0.1521   0.9905   0
1178.683   0.3614   0.1382   0.9905   0
1178.743   0.3730   0.1388   0.9904   0
1178.803   0.6200   0.1552   0.9904   0
1178.863   0.4904   0.1471   0.9904   0
1178.922   0.6079   0.1541   0.9903   0
1178.982   0.4544   0.1439   0.9903   0
1179.042   0.6763   0.1583   0.9903   0
1179.102   0.4998   0.1472   0.9902   0
1179.162   0.5713   0.1515   0.9902   0
1179.222   0.6993   0.1601   0.9902   0
1179.281   0.7336   0.1613   0.9901   0
1179.341   0.6749   0.1582   0.9901   0
1179.401   0.8625   0.1684   0.9901   0
1179.461   0.9564   0.1733   0.9901   1
1179.521   0.7103   0.1604   0.9900   1
1179.580   0.8860   0.1696   0.9900   1
1179.640   0.7451   0.1618   0.9900   1
1179.700   0.7215   0.1602   0.9899   1
1179.760   0.7208   0.1599   0.9899   1
1179.820   0.8135   0.1656   0.9899   1
1179.880   0.8950   0.1698   0.9898   1
1179.939   0.7208   0.1604   0.9898   1
1179.999   0.7671   0.1628   0.9898   1
1180.059   0.7488   0.1623   0.9897   1
1180.119   0.7795   0.1652   0.9897   1
1180.179   0.7205   0.1615   0.9896   1
1180.239   0.7852   0.1658   0.9896   1
1180.298   0.9126   0.1723   0.9896   1
1180.358   0.8107   0.1670   0.9895   1
1180.418   0.9539   0.1739   0.9895   1
1180.478   0.8536   0.1688   0.9895   1
1180.538   0.8936   0.1707   0.9894   1
1180.597   0.7259   0.1604   0.9894   1
1180.657   0.9697   0.1725   0.9894   1
1180.717   0.8065   0.1638   0.9893   1
1180.777   0.9921   0.1740   0.9893   1
1180.837   0.9691   0.1726   0.9893   1
1180.896   0.7833   0.1628   0.9892   1
1180.956   0.7715   0.1627   0.9892   1
1181.016   0.7131   0.1592   0.9891   1
1181.076   0.7951   0.1636   0.9891   1
1181.136   0.8885   0.1682   0.9891   1
1181.196   0.9803   0.1728   0.9890   1
1181.255   0.7818   0.1626   0.9890   1
1181.315   0.9431   0.1705   0.9890   1
1181.375   1.0589   0.1769   0.9889   1
1181.435   0.9204   0.1693   0.9889   1
1181.495   0.8048   0.1634   0.9888   1
1181.555   0.9088   0.1692   0.9888   1
1181.614   0.8856   0.1673   0.9888   1
1181.674   0.6541   0.1545   0.9887   1
1181.734   0.9878   0.1725   0.9887   1
1181.794   0.8808   0.1676   0.9887   1
1181.854   0.8752   0.1681   0.9886   1
1181.913   0.7599   0.1625   0.9886   1
1181.973   0.7749   0.1640   0.9885   1
1182.033   0.8764   0.1694   0.9885   1
1182.093   0.9551   0.1728   0.9884   1
1182.153   0.9296   0.1716   0.9884   1
1182.213   1.1638   0.1825   0.9884   1
1182.272   1.0252   0.1757   0.9883   1
1182.332   1.1176   0.1793   0.9883   1
1182.392   0.8557   0.1654   0.9882   1
1182.452   0.9119   0.1681   0.9882   1
1182.512   0.9073   0.1553   0.9882   1
1182.571   0.8303   0.1637   0.9881   1
1182.631   0.7950   0.1615   0.9881   1
1182.691   0.8736   0.1650   0.9880   1
1182.751   0.9533   0.1695   0.9880   1
1182.811   0.9529   0.1696   0.9879   1
1182.871   0.9638   0.1699   0.9879   1
1182.930   0.6901   0.1557   0.9879   1
1182.990   0.8713   0.1649   0.9878   1
1183.050   0.8137   0.1616   0.9878   1
1183.110   0.9153   0.1674   0.9877   1
1183.170   1.0621   0.1742   0.9877   1
1183.229   1.0841   0.1753   0.9876   1
1183.289   0.7777   0.1596   0.9876   1
1183.349   0.8676   0.1647   0.9875   1
1183.409   1.0128   0.1714   0.9875   1
1183.469   0.8426   0.1626   0.9875   1
1183.529   0.9663   0.1689   0.9874   1
1183.588   0.9555   0.1683   0.9874   1
1183.648   0.8870   0.1651   0.9873   1
1183.708   0.8626   0.1636   0.9873   1
1183.768   0.9067   0.1657   0.9872   1
1183.828   0.9289   0.1668   0.9872   1
1183.887   1.0949   0.1747   0.9871   1
1183.947   1.0600   0.1726   0.9871   1
1184.007   0.8925   0.1647   0.9870   1
1184.067   0.8476   0.1620   0.9870   1
1184.127   0.9119   0.1647   0.9869   1
1184.187   0.9328   0.1663   0.9869   1
1184.246   0.8648   0.1621   0.9868   1
1184.306   0.9980   0.1694   0.9868   1
1184.366   0.9522   0.1665   0.9867   1
1184.426   0.8847   0.1629   0.9867   1
1184.486   0.9841   0.1678   0.9866   1
1184.546   0.8387   0.1610   0.9866   0
1184.605   0.8045   0.1588   0.9865   0
1184.665   0.8926   0.1631   0.9865   0
1184.725   0.8139   0.1592   0.9864   0
1184.785   0.8687   0.1619   0.9864   0
1184.845   0.9019   0.1632   0.9863   0
1184.904   0.7246   0.1538   0.9863   0
1184.964   0.7566   0.1555   0.9862   0
1185.024   0.7332   0.1541   0.9862   0
1185.084   0.5677   0.1448   0.9861   0
1185.144   0.8314   0.1593   0.9861   0
1185.203   0.6241   0.1489   0.9860   0
1185.263   0.7505   0.1571   0.9860   0
1185.323   0.6521   0.1528   0.9859   0
1185.383   0.6428   0.1523   0.9858   0
1185.443   0.5586   0.1469   0.9858   0
1185.503   0.7829   0.1590   0.9857   0
1185.562   0.7918   0.1600   0.9857   0
1185.622   0.8288   0.1612   0.9856   0
1185.682   0.8083   0.1601   0.9856   0
1185.742   0.7701   0.1561   0.9855   0
1185.802   0.8717   0.1604   0.9855   0
1185.862   0.8553   0.1583   0.9854   0
1185.921   0.8112   0.1570   0.9853   0
1185.981   0.9641   0.1645   0.9853   0
1186.041   0.6711   0.1490   0.9852   0
1186.101   0.8006   0.1562   0.9852   0
1186.161   0.7448   0.1530   0.9851   0
1186.220   0.5923   0.1441   0.9850   0
1186.280   0.7540   0.1528   0.9850   0
1186.340   0.6995   0.1499   0.9849   0
1186.400   0.7743   0.1536   0.9849   0
1186.460   0.5586   0.1412   0.9848   0
1186.520   0.6117   0.1446   0.9847   0
1186.579   0.6971   0.1492   0.9847   0
1186.639   0.5242   0.1390   0.9846   0
1186.699   0.5875   0.1430   0.9845   0
1186.759   0.5866   0.1430   0.9845   0
1186.819   0.5432   0.1403   0.9844   0
1186.879   0.8111   0.1553   0.9844   0
1186.938   0.8426   0.1569   0.9843   0
1186.998   0.7338   0.1509   0.9842   0
1187.058   0.5944   0.1427   0.9842   0
1187.118   0.9145   0.1603   0.9841   0
1187.178   0.8718   0.1578   0.9840   0
1187.237   0.8824   0.1576   0.9840   0
1187.297   0.8923   0.1586   0.9839   0
1187.357   0.8062   0.1540   0.9838   0
1187.417   0.8583   0.1560   0.9838   0
1187.477   0.8998   0.1587   0.9837   0
1187.536   0.9516   0.1611   0.9836   0
1187.596   0.8660   0.1571   0.9836   0
1187.656   0.8874   0.1579   0.9835   0
1187.716   0.9080   0.1589   0.9834   0
1187.776   0.7799   0.1525   0.9834   0
1187.836   0.8533   0.1563   0.9833   0
1187.895   0.8961   0.1582   0.9832   0
1187.955   1.0136   0.1639   0.9831   0
1188.015   0.7358   0.1496   0.9831   0
1188.075   1.0102   0.1629   0.9830   0
1188.135   0.7353   0.1496   0.9829   0
1188.195   0.6826   0.1463   0.9829   0
1188.254   0.7879   0.1517   0.9828   0
1188.314   0.7773   0.1515   0.9827   0
1188.374   0.9358   0.1595   0.9826   0
1188.434   0.9887   0.1622   0.9826   0
1188.494   0.7848   0.1521   0.9825   0
1188.553   0.8695   0.1575   0.9824   0
1188.613   0.8575   0.1573   0.9823   0
1188.673   0.8019   0.1544   0.9822   0
1188.733   0.8975   0.1594   0.9822   0
1188.793   0.8442   0.1567   0.9821   0
1188.853   0.9678   0.1633   0.9820   0
1188.912   0.9183   0.1603   0.9819   0
1188.972   0.9796   0.1620   0.9819   0
1189.032   0.9417   0.1592   0.9818   0
1189.092   0.8363   0.1538   0.9817   0
1189.152   0.8251   0.1532   0.9816   0
1189.211   0.9916   0.1611   0.9815   0
1189.271   0.7507   0.1493   0.9814   0
1189.331   0.8143   0.1523   0.9814   0
1189.391   0.7408   0.1487   0.9813   0
1189.451   0.7922   0.1515   0.9812   0
1189.511   0.8743   0.1555   0.9811   0
1189.570   0.5616   0.1384   0.9810   0
1189.630   0.6445   0.1430   0.9809   0
1189.690   0.8427   0.1537   0.9809   0
1189.750   0.6758   0.1448   0.9808   0
1189.810   0.6335   0.1423   0.9807   0
1189.870   0.6226   0.1418   0.9806   0
1189.929   0.6328   0.1422   0.9805   0
1189.989   0.3625   0.1252   0.9804   0
1190.049   0.5076   0.1346   0.9803   0
1190.109   0.3102   0.1215   0.9802   0
1190.169   0.2892   0.1201   0.9801   0
1190.228   0.2689   0.1184   0.9801   0
1190.288   0.2132   0.1149   0.9800   0
1190.348   0.1723   0.1109   0.9799   0
1190.408   0.1505   0.1095   0.9798   0
1190.468   0.0745   0.1025   0.9797   0
1190.527   0.1719   0.1113   0.9796   0
1190.587   0.1401   0.1081   0.9795   0
1190.647   0.0966   0.1044   0.9794   0
1190.707   0.0840   0.1029   0.9793   0
1190.767   0.2058   0.1131   0.9792   0
1190.827   0.2156   0.1138   0.9791   0
1190.886   0.1951   0.1121   0.9790   0
1190.946   0.2774   0.1185   0.9789   0
1191.006   0.2564   0.1167   0.9788   0
1191.066   0.2875   0.1191   0.9787   0
1191.126   0.2255   0.1139   0.9786   0
1191.186   0.2149   0.1137   0.9785   0
1191.245   0.1945   0.1118   0.9784   0
1191.305   0.1737   0.1098   0.9783   0
1191.365   0.2866   0.1188   0.9782   0
1191.425   0.2968   0.1189   0.9781   0
1191.485   0.2044   0.1122   0.9780   0
1191.544   0.1634   0.1089   0.9779   0
1191.604   0.2144   0.1133   0.9778   0
1191.664   0.2346   0.1145   0.9776   0
1191.724   0.3266   0.1212   0.9775   0
1191.784   0.2241   0.1135   0.9774   0
1191.844   0.2342   0.1143   0.9773   0
1191.903   0.2239   0.1135   0.9772   0
1191.963   0.2545   0.1155   0.9771   0
1192.023   0.2746   0.1174   0.9770   0
1192.083   0.2744   0.1170   0.9769   0
1192.143   0.2747   0.1171   0.9767   0
1192.203   0.2131   0.1122   0.9766   0
1192.262   0.2029   0.1111   0.9765   0
1192.322   0.2232   0.1131   0.9764   0
1192.382   0.1926   0.1105   0.9763   0
1192.442   0.1518   0.1073   0.9762   0
1192.502   0.2024   0.1115   0.9760   0
1192.561   0.2124   0.1120   0.9759   0
1192.621   0.2632   0.1159   0.9758   0
1192.681   0.2426   0.1143   0.9757   0
1192.741   0.3236   0.1198   0.9755   0
1192.801   0.3334   0.1206   0.9754   0
1192.860   0.3837   0.1243   0.9753   0
1192.920   0.3027   0.1184   0.9752   0
1192.980   0.3834   0.1242   0.9750   0
1193.040   0.2217   0.1127   0.9749   0
1193.100   0.1303   0.1049   0.9748   0
1193.160   0.2316   0.1130   0.9746   0
1193.219   0.1606   0.1073   0.9745   0
1193.279   0.0895   0.1012   0.9744   0
1193.339   0.1087   0.1029   0.9742   0
1193.399   0.0781   0.1001   0.9741   0
1193.459   0.0674   0.0991   0.9740   0
1193.519   0.0774   0.1000   0.9738   0
1193.578   0.1804   0.1090   0.9737   0
1193.638   0.1778   0.1093   0.9736   0
1193.698   0.1597   0.1079   0.9734   0
1193.758   0.3190   0.1215   0.9733   0
1193.818   0.1406   0.1068   0.9731   0
1193.877   0.1071   0.1038   0.9730   0
1193.937   0.2389   0.1144   0.9728   0
1193.997   0.1948   0.1108   0.9727   0
1194.057   0.1806   0.1093   0.9725   0
1194.117   0.2572   0.1070   0.9724   0
1194.177   0.2079   0.1103   0.9723   0
1194.236   0.1664   0.1070   0.9721   0
1194.296   0.2567   0.1142   0.9719   0
1194.356   0.1771   0.1077   0.9718   0
1194.416   0.1676   0.1070   0.9716   0
1194.476   0.2877   0.1163   0.9715   0
1194.535   0.2576   0.1140   0.9713   0
1194.595   0.3473   0.1203   0.9712   0
1194.655   0.1671   0.1068   0.9710   0
1194.715   0.2966   0.1165   0.9708   0
1194.775   0.3263   0.1185   0.9707   0
1194.835   0.2565   0.1136   0.9705   0
1194.894   0.2266   0.1118   0.9703   0
1194.954   0.2861   0.1157   0.9702   0
1195.014   0.1865   0.1076   0.9700   0
1195.074   0.1964   0.1090   0.9698   0
1195.134   0.1667   0.1059   0.9697   0
1195.193   0.1762   0.1073   0.9695   0
1195.253   0.1364   0.1038   0.9693   0
1195.313   0.0467   0.0957   0.9691   0
1195.373   0.2054   0.1093   0.9690   0
1195.433   0.0964   0.1002   0.9688   0
1195.493   0.2945   0.1158   0.9686   0
1195.552   0.2941   0.1162   0.9684   0
1195.612   0.2443   0.1123   0.9682   0
1195.672   0.3434   0.1198   0.9681   0
1195.732   0.3036   0.1159   0.9679   0
1195.792   0.4516   0.1263   0.9677   0
1195.851   0.4019   0.1230   0.9675   0
1195.911   0.3721   0.1210   0.9673   0
1195.971   0.3619   0.1200   0.9671   0
1196.031   0.4504   0.1257   0.9669   0
1196.091   0.3320   0.1175   0.9667   0
1196.151   0.6759   0.1390   0.9665   0
1196.210   0.5480   0.1318   0.9663   0
1196.270   0.6164   0.1358   0.9661   0
1196.330   0.5475   0.1313   0.9659   0
1196.390   0.6257   0.1362   0.9657   0
1196.450   0.6549   0.1372   0.9655   0
1196.510   0.5757   0.1334   0.9653   0
1196.569   0.7817   0.1440   0.9651   1
1196.629   0.5656   0.1324   0.9649   1
1196.689   0.8787   0.1489   0.9646   1
1196.749   0.7703   0.1435   0.9644   1
1196.809   0.7015   0.1394   0.9642   1
1196.868   0.8674   0.1494   0.9640   1
1196.928   0.8744   0.1503   0.9638   1
1196.988   0.8221   0.1483   0.9635   1
1197.048   1.0052   0.1575   0.9633   1
1197.108   0.7905   0.1458   0.9631   1
1197.167   0.8011   0.1466   0.9629   1
1197.227   0.7536   0.1441   0.9626   1
1197.287   0.6520   0.1385   0.9624   1
1197.347   0.9410   0.1530   0.9621   1
1197.407   0.8724   0.1479   0.9619   1
1197.467   0.9891   0.1534   0.9617   1
1197.526   1.0958   0.1581   0.9614   1
1197.586   0.9485   0.1515   0.9612   1
1197.646   1.0054   0.1540   0.9609   1
1197.706   0.8101   0.1444   0.9607   1
1197.766   0.8580   0.1470   0.9604   1
1197.826   0.9929   0.1533   0.9602   1
1197.885   0.9726   0.1519   0.9599   1
1197.945   0.9337   0.1500   0.9596   1
1198.005   0.8077   0.1441   0.9594   1
1198.065   1.0204   0.1542   0.9591   1
1198.125   0.8757   0.1473   0.9588   1
1198.184   0.8562   0.1464   0.9586   1
1198.244   0.9224   0.1493   0.9583   1
1198.304   0.9106   0.1485   0.9580   1
1198.364   0.7754   0.1419   0.9577   1
1198.424   0.9283   0.1492   0.9574   1
1198.484   0.7838   0.1427   0.9571   0
1198.543   0.7758   0.1422   0.9569   0
1198.603   0.8313   0.1459   0.9566   0
1198.663   0.7055   0.1397   0.9563   0
1198.723   0.8562   0.1481   0.9560   0
1198.783   0.8328   0.1465   0.9557   0
1198.843   0.6744   0.1380   0.9554   0
1198.902   0.7140   0.1402   0.9551   0
1198.962   0.8296   0.1460   0.9547   0
1199.022   0.7996   0.1449   0.9544   0
1199.082   0.8613   0.1472   0.9541   0
1199.142   0.6168   0.1326   0.9538   0
1199.201   0.5494   0.1290   0.9535   0
1199.261   0.6262   0.1336   0.9531   0
1199.321   0.4437   0.1229   0.9528   0
1199.381   0.4718   0.1244   0.9525   0
1199.441   0.2712   0.1111   0.9521   0
1199.500   0.2612   0.1103   0.9518   0
1199.560   0.3176   0.1140   0.9514   0
1199.620   0.3000   0.1127   0.9511   0
1199.680   0.4338   0.1216   0.9507   0
1199.740   0.4716   0.1242   0.9504   0
1199.800   0.5568   0.1288   0.9500   0
1199.859   0.5758   0.1302   0.9497   0
1199.919   0.3573   0.1168   0.9493   0
1199.979   0.4998   0.1255   0.9489   0
1200.039   0.4523   0.1226   0.9485   0
1200.099   0.4810   0.1248   0.9482   0
1200.159   0.4142   0.1204   0.9478   0
1200.218   0.2530   0.1091   0.9474   0
1200.278   0.3951   0.1191   0.9470   0
1200.338   0.2623   0.1097   0.9466   0
1200.398   0.3281   0.1141   0.9462   0
1200.458   0.3373   0.1146   0.9458   0
1200.517   0.2906   0.1116   0.9454   0
1200.577   0.2057   0.1053   0.9450   0
1200.637   0.2437   0.1082   0.9445   0
1200.697   0.1679   0.1021   0.9441   0
1200.757   0.1396   0.0999   0.9437   0
1200.817   0.2050   0.1049   0.9432   0
1200.876   0.2141   0.1058   0.9428   0
1200.936   0.2513   0.1083   0.9424   0
1200.996   0.1665   0.1019   0.9419   0
1201.056   0.2512   0.1082   0.9415   0
1201.116   0.3072   0.1123   0.9410   0
1201.175   0.3065   0.1122   0.9405   0
1201.235   0.4096   0.1189   0.9401   0
1201.295   0.1748   0.1025   0.9396   0
1201.355   0.2685   0.1090   0.9391   0
1201.415   0.2217   0.1059   0.9386   0
1201.475   0.1279   0.0980   0.9381   0
1201.534   0.2305   0.1066   0.9376   0
1201.594   0.2494   0.1078   0.9371   0
1201.654   0.2678   0.1092   0.9366   0
1201.714   0.3053   0.1119   0.9361   0
1201.774   0.3427   0.1141   0.9355   0
1201.833   0.3244   0.1129   0.9350   0
1201.893   0.2212   0.1051   0.9345   0
1201.953   0.3242   0.1134   0.9339   0
1202.013   0.4001   0.1191   0.9334   0
1202.073   0.2487   0.1097   0.9328   0
1202.133   0.2670   0.1110   0.9322   0
1202.192   0.2884   0.1124   0.9317   0
1202.252   0.2334   0.1081   0.9311   0
1202.312   0.3439   0.1165   0.9305   0
1202.372   0.3233   0.1148   0.9299   0
1202.432   0.4153   0.1215   0.9293   0
1202.491   0.3194   0.1131   0.9287   0
1202.551   0.3438   0.1143   0.9281   0
1202.611   0.2729   0.1095   0.9274   0
1202.671   0.3052   0.1115   0.9268   0
1202.731   0.1930   0.1029   0.9262   0
1202.791   0.3880   0.1165   0.9255   0
1202.850   0.3503   0.1138   0.9249   0
1202.910   0.3593   0.1143   0.9242   0
1202.970   0.2295   0.1057   0.9235   0
1203.030   0.2662   0.1080   0.9228   0
1203.090   0.3031   0.1103   0.9221   0
1203.150   0.2752   0.1085   0.9214   0
1203.209   0.3767   0.1154   0.9207   0
1203.269   0.3396   0.1130   0.9200   0
1203.329   0.3395   0.1130   0.9193   0
1203.389   0.3395   0.1131   0.9185   0
1203.449   0.4596   0.1206   0.9178   0
1203.508   0.3300   0.1126   0.9170   0
1203.568   0.2929   0.1097   0.9162   0
1203.628   0.4222   0.1182   0.9154   0
1203.688   0.2934   0.1097   0.9146   0
1203.748   0.3389   0.1129   0.9138   0
1203.807   0.3200   0.1117   0.9130   0
1203.867   0.3841   0.1158   0.9122   0
1203.927   0.3565   0.1137   0.9113   0
1203.987   0.3655   0.1143   0.9105   0
1204.047   0.2644   0.1076   0.9096   0
1204.107   0.3289   0.1117   0.9087   0
1204.167   0.3102   0.1105   0.9078   0
1204.226   0.3378   0.1127   0.9069   0
1204.286   0.4020   0.1170   0.9060   0
1204.346   0.4566   0.1201   0.9051   0
1204.406   0.4009   0.1166   0.9041   0
1204.466   0.3822   0.1153   0.9032   0
1204.525   0.4279   0.1181   0.9022   0
1204.585   0.3914   0.1159   0.9012   0
1204.645   0.4738   0.1210   0.9002   0
1204.705   0.4186   0.1174   0.8992   0
1204.765   0.3912   0.1159   0.8982   0
1204.824   0.4740   0.1210   0.8971   0
1204.884   0.5014   0.1228   0.8960   0
1204.944   0.6293   0.1297   0.8950   0
1205.004   0.5559   0.1258   0.8939   0
1205.064   0.3819   0.1152   0.8928   0
1205.124   0.4994   0.1222   0.8916   0
1205.183   0.4356   0.1181   0.8905   0
1205.243   0.5182   0.1228   0.8893   0
1205.303   0.4069   0.1172   0.8881   0
1205.363   0.4959   0.1231   0.8869   0
1205.423   0.4318   0.1198   0.8857   0
1205.483   0.3702   0.1154   0.8844   0
1205.542   0.3584   0.1146   0.8832   0
1205.602   0.2724   0.1081   0.8819   0
1205.662   0.3679   0.1067   0.8806   0
1205.722   0.4906   0.1226   0.8793   0
1205.782   0.3067   0.1104   0.8779   0
1205.841   0.3464   0.1124   0.8765   0
1205.901   0.1798   0.1003   0.8752   0
1205.961   0.2343   0.1042   0.8737   0
1206.021   0.1523   0.0982   0.8723   0
1206.081   0.0699   0.0909   0.8708   0
1206.141   0.1338   0.0965   0.8693   0
1206.200   0.0523   0.0893   0.8678   0
1206.260   0.0521   0.0892   0.8663   0
1206.320   0.0524   0.0893   0.8647   0
1206.380   0.0163   0.0857   0.8631   0
1206.440   0.0162   0.0857   0.8615   0
1206.500   0.0069   0.0848   0.8599   0
1206.559   0.0065   0.0847   0.8582   0
1206.619   0.0067   0.0847   0.8565   0
1206.679   -0.0024   0.0838   0.8547   0
1206.739   -0.0023   0.0838   0.8530   0
1206.799   0.0069   0.0847   0.8512   0
1206.858   0.0342   0.0873   0.8493   0
1206.918   -0.0024   0.0837   0.8475   0
1206.978   0.0156   0.0854   0.8456   0
1207.038   0.0446   0.0885   0.8436   0
1207.098   0.0268   0.0870   0.8417   0
1207.157   0.0076   0.0850   0.8397   0
1207.217   0.0455   0.0887   0.8376   0
1207.277   0.0357   0.0877   0.8356   0
1207.337   0.0548   0.0896   0.8334   0
1207.397   0.0646   0.0906   0.8313   0
1207.457   0.0169   0.0857   0.8291   0
1207.516   0.0074   0.0846   0.8268   0
1207.576   0.0258   0.0863   0.8246   0
1207.636   0.0256   0.0862   0.8222   0
1207.696   0.0255   0.0862   0.8199   0
1207.756   0.0254   0.0861   0.8174   0
1207.816   0.0434   0.0879   0.8150   0
1207.875   0.0886   0.0921   0.8124   0
1207.935   0.0259   0.0861   0.8099   0
1207.995   0.0350   0.0870   0.8073   0
1208.055   0.0621   0.0894   0.8046   0
1208.115   0.0349   0.0870   0.8019   0
1208.174   0.0982   0.0925   0.7991   0
1208.234   0.0622   0.0895   0.7963   0
1208.294   0.0711   0.0903   0.7934   0
1208.354   0.0619   0.0894   0.7904   0
1208.414   0.0887   0.0919   0.7874   0
1208.474   0.0347   0.0867   0.7844   0
1208.533   0.0528   0.0886   0.7812   0
1208.593   0.0796   0.0910   0.7780   0
1208.653   0.0251   0.0859   0.7748   0
1208.713   0.0432   0.0876   0.7714   0
1208.773   0.0786   0.0910   0.7680   0
1208.832   0.1235   0.0946   0.7645   0
1208.892   0.1499   0.0970   0.7610   0
1208.952   0.2662   0.1056   0.7574   0
1209.012   0.3021   0.1084   0.7536   0
1209.072   0.4010   0.1148   0.7499   0
1209.132   0.4278   0.1164   0.7460   0
1209.191   0.4548   0.1179   0.7420   0
1209.251   0.5171   0.1218   0.7380   0
1209.311   0.3640   0.1126   0.7338   1
1209.371   0.3638   0.1124   0.7296   1
1209.431   0.4441   0.1173   0.7253   1
1209.490   0.5068   0.1209   0.7209   1
1209.550   0.6501   0.1286   0.7164   1
1209.610   0.5782   0.1250   0.7117   1
1209.670   0.5779   0.1249   0.7070   1
1209.730   0.5328   0.1227   0.7022   1
1209.790   0.5239   0.1220   0.6972   1
1209.849   0.5867   0.1252   0.6922   1
1209.909   0.3989   0.1144   0.6870   1
1209.969   0.5784   0.1249   0.6817   1
1210.029   0.4620   0.1181   0.6763   1
1210.089   0.4532   0.1176   0.6707   1
1210.148   0.4800   0.1194   0.6651   1
1210.208   0.5250   0.1216   0.6593   1
1210.268   0.3996   0.1140   0.6533   1
1210.328   0.4891   0.1200   0.6472   1
1210.388   0.4594   0.1185   0.6410   1
1210.448   0.5629   0.1256   0.6346   1
1210.507   0.4189   0.1174   0.6281   1
1210.567   0.5047   0.1227   0.6214   1
1210.627   0.4739   0.1214   0.6145   1
1210.687   0.4293   0.1186   0.6075   1
1210.747   0.5097   0.1241   0.6003   1
1210.807   0.4487   0.1203   0.5930   1
1210.866   0.5009   0.1226   0.5854   1
1210.926   0.4604   0.1185   0.5777   1
1210.986   0.3987   0.1139   0.5698   1
1211.046   0.4598   0.1175   0.5617   1
1211.106   0.4155   0.1146   0.5535   1
1211.165   0.3262   0.1094   0.5450   1
1211.225   0.4061   0.1143   0.5363   1
1211.285   0.4678   0.1181   0.5274   1
1211.345   0.4321   0.1155   0.5183   1
1211.405   0.4500   0.1168   0.5090   1
1211.464   0.3965   0.1137   0.4995   1
1211.524   0.4043   0.1138   0.4898   1
1211.584   0.3420   0.1098   0.4798   1
1211.644   0.4661   0.1176   0.4697   1
1211.704   0.3332   0.1092   0.4593   1
1211.764   0.4039   0.1133   0.4486   1
1211.823   0.3415   0.1097   0.4378   1
1211.883   0.4035   0.1136   0.4267   1
1211.943   0.3769   0.1121   0.4154   1
1212.003   0.3063   0.1071   0.4038   1
1212.063   0.2973   0.1061   0.3921   1
1212.123   0.3148   0.1077   0.3801   1
1212.182   0.2617   0.1038   0.3679   1
1212.242   0.2085   0.1002   0.3555   1
1212.302   0.2530   0.1031   0.3428   1
1212.362   0.2087   0.1001   0.3300   1
1212.422   0.2002   0.0996   0.3170   1
1212.481   0.2269   0.1012   0.3039   1
1212.541   0.2183   0.1006   0.2905   1
1212.601   0.2185   0.1006   0.2771   1
1212.661   0.1480   0.0951   0.2635   1
1212.721   0.1391   0.0945   0.2498   1
1212.781   0.1212   0.0930   0.2361   1
1212.840   0.2182   0.1007   0.2223   1
1212.900   0.1300   0.0933   0.2085   1
1212.960   0.1211   0.0927   0.1947   1
1213.020   0.1387   0.0942   0.1810   1
1213.080   0.1034   0.0913   0.1674   1
1213.140   0.1644   0.0962   0.1540   1
1213.199   0.0678   0.0879   0.1408   1
1213.259   0.0680   0.0880   0.1279   1
1213.319   0.0856   0.0896   0.1153   1
1213.379   0.0945   0.0903   0.1031   1
1213.439   0.0413   0.0855   0.0914   1
1213.498   0.1023   0.0909   0.0802   1
1213.558   0.0496   0.0862   0.0696   1
1213.618   0.0232   0.0838   0.0597   1
1213.678   0.0491   0.0861   0.0504   1
1213.738   0.0323   0.0849   0.0419   1
1213.797   0.0240   0.0842   0.0343   1
1213.857   0.0606   0.0877   0.0274   1
1213.917   0.0239   0.0841   0.0215   1
1213.977   0.0236   0.0841   0.0164   0
1214.037   0.0140   0.0833   0.0121   0
1214.097   0.0143   0.0831   0.0087   0
1214.156   0.0591   0.0871   0.0059   0
1214.216   0.0217   0.0834   0.0039   0
1214.276   -0.0055   0.0808   0.0024   0
1214.336   0.0463   0.0857   0.0014   0
1214.396   0.0627   0.0873   0.0007   0
1214.456   0.0178   0.0833   0.0003   0
1214.515   0.1207   0.0922   0.0001   0
1214.575   0.1352   0.0932   0.0000   0
1214.635   0.1895   0.0972   0.0000   0
1214.695   0.4486   0.1136   0.0000   0
1214.755   1.9554   0.1766   0.0000   0
1214.814   4.9428   0.2519   -0.0000   0
1214.874   10.2875   0.3431   -0.0000   0
1214.934   15.4422   0.4099   -0.0000   0
1214.994   24.5480   0.5051   -0.0000   0
1215.054   34.7527   0.5925   -0.0000   0
1215.114   41.9977   0.6468   -0.0000   0
1215.173   52.1980   0.7158   -0.0000   0
1215.233   60.7290   0.7685   -0.0000   0
1215.293   68.8523   0.8153   -0.0000   0
1215.353   73.3266   0.8398   -0.0000   0
1215.413   78.5364   0.8674   -0.0000   0
1215.472   83.8464   0.9066   0.0000   0
1215.532   84.9283   0.9217   -0.0000   0
1215.592   83.9213   0.9147   -0.0000   0
1215.652   83.7636   0.9144   -0.0000   0
1215.712   80.0715   0.8953   -0.0000   0
1215.772   77.5470   0.8863   -0.0000   0
1215.831   68.9154   0.8335   -0.0000   0
1215.891   62.1092   0.7862   -0.0000   0
1215.951   51.4986   0.7097   -0.0000   0
1216.011   44.9992   0.6658   0.0000   0
1216.071   33.7697   0.5823   -0.0000   0
1216.130   23.8847   0.4965   -0.0000   0
1216.190   16.7906   0.4235   -0.0000   0
1216.250   10.9203   0.3499   -0.0000   0
1216.310   6.3083   0.2769   -0.0000   0
1216.370   2.3080   0.1856   -0.0000   0
1216.430   0.3836   0.1081   -0.0000   0
1216.489   0.1748   0.0950   -0.0000   0
1216.549   0.1076   0.0902   -0.0000   0
1216.609   0.1318   0.0920   -0.0000   0
1216.669   0.0403   0.0845   -0.0000   0
1216.729   0.0858   0.0881   0.0000   0
1216.788   0.0956   0.0889   0.0000   0
1216.848   0.0271   0.0828   0.0000   0
1216.908   0.0445   0.0844   0.0000   0
1216.968   0.0105   0.0812   0.0000   0
1217.028   0.0280   0.0828   0.0000   0
1217.088   0.0112   0.0811   0.0000   0
1217.147   0.0208   0.0819   0.0000   1
1217.207   0.0244   0.0762   0.0000   1
1217.267   0.0035   0.0802   0.0000   1
1217.327   -0.0046   0.0794   0.0000   1
1217.387   0.0135   0.0810   0.0000   1
1217.447   0.0135   0.0810   0.0000   1
1217.506   0.0307   0.0827   0.0000   1
1217.566   0.0138   0.0809   0.0000   1
1217.626   -0.0032   0.0792   0.0000   1
1217.686   0.0055   0.0800   -0.0000   1
1217.746   0.0230   0.0816   -0.0000   1
1217.805   0.0229   0.0817   -0.0000   1
1217.865   0.0235   0.0816   0.0000   1
1217.925   0.0322   0.0825   0.0000   1
1217.985   0.0236   0.0815   0.0000   1
1218.045   0.0065   0.0799   0.0000   1
1218.104   -0.0022   0.0790   0.0000   1
1218.164   0.0577   0.0847   0.0002   1
1218.224   0.0234   0.0815   0.0010   1
1218.284   0.0323   0.0823   0.0027   1
1218.344   0.0578   0.0846   0.0061   1
1218.404   0.1348   0.0914   0.0113   1
1218.464   0.1431   0.0922   0.0186   1
1218.523   0.0751   0.0860   0.0278   1
1218.583   0.1351   0.0911   0.0388   1
1218.643   0.1774   0.0946   0.0513   1
1218.703   0.1430   0.0920   0.0651   1
1218.763   0.1683   0.0938   0.0798   1
1218.822   0.2379   0.0997   0.0954   1
1218.882   0.2599   0.1019   0.1115   1
1218.942   0.3787   0.1109   0.1280   1
1219.002   0.3090   0.1061   0.1447   1
1219.062   0.2641   0.1027   0.1616   1
1219.121   0.3599   0.1107   0.1785   1
1219.181   0.2768   0.1038   0.1953   1
1219.241   0.3816   0.1110   0.2120   1
1219.301   0.4054   0.1112   0.2285   1
1219.361   0.2891   0.1026   0.2448   1
1219.421   0.3309   0.1055   0.2608   1
1219.480   0.3380   0.1056   0.2766   1
1219.540   0.4308   0.1116   0.2921   1
1219.600   0.3452   0.1063   0.3072   0
1219.660   0.4303   0.1110   0.3221   0
1219.720   0.3624   0.1069   0.3366   0
1219.780   0.3625   0.1068   0.3508   0
1219.839   0.3370   0.1055   0.3646   0
1219.899   0.3623   0.1072   0.3781   0
1219.959   0.2942   0.1027   0.3913   0
1220.019   0.3780   0.1079   0.4041   0
1220.079   0.3178   0.1043   0.4167   0
1220.138   0.3764   0.1080   0.4289   0
1220.198   0.3933   0.1089   0.4408   0
1220.258   0.3250   0.1043   0.4523   0
1220.318   0.3505   0.1061   0.4636   0
1220.378   0.3932   0.1090   0.4746   0
1220.438   0.3510   0.1062   0.4853   0
1220.497   0.4025   0.1093   0.4957   0
1220.557   0.3858   0.1085   0.5059   0
1220.617   0.4621   0.1127   0.5158   0
1220.677   0.5802   0.1192   0.5254   0
1220.737   0.4030   0.1094   0.5348   0
1220.796   0.4874   0.1143   0.5439   0
1220.856   0.4532   0.1122   0.5528   0
1220.916   0.4783   0.1137   0.5614   0
1220.976   0.3770   0.1077   0.5699   0
1221.036   0.4362   0.1113   0.5781   0
1221.096   0.4359   0.1113   0.5861   0
1221.155   0.5202   0.1163   0.5939   0
1221.215   0.4951   0.1147   0.6015   0
1221.275   0.4445   0.1112   0.6089   0
1221.335   0.4612   0.1125   0.6161   0
1221.395   0.5612   0.1183   0.6231   0
1221.454   0.4763   0.1134   0.6300   0
1221.514   0.4929   0.1140   0.6367   0
1221.574   0.5685   0.1184   0.6432   0
1221.634   0.4840   0.1133   0.6495   0
1221.694   0.5086   0.1152   0.6557   0
1221.754   0.6174   0.1211   0.6618   0
1221.813   0.5667   0.1182   0.6677   0
1221.873   0.5669   0.1181   0.6734   0
1221.933   0.5929   0.1196   0.6790   0
1221.993   0.6509   0.1228   0.6845   0
1222.053   0.6753   0.1237   0.6899   0
1222.112   0.5341   0.1166   0.6951   0
1222.172   0.6074   0.1217   0.7002   0
1222.232   0.4472   0.1126   0.7051   0
1222.292   0.5347   0.1184   0.7100   0
1222.352   0.5709   0.1193   0.7148   0
1222.412   0.6438   0.1238   0.7194   0
1222.471   0.7853   0.1312   0.7239   0
1222.531   0.6195   0.1221   0.7283   0
1222.591   0.5172   0.1153   0.7327   0
1222.651   0.6384   0.1216   0.7369   0
1222.711   0.6970   0.1244   0.7410   0
1222.771   0.7471   0.1270   0.7451   0
1222.830   0.5615   0.1170   0.7490   0
1222.890   0.7028   0.1244   0.7529   0
1222.950   0.7278   0.1256   0.7567   0
1223.010   0.4778   0.1125   0.7603   0
1223.070   0.6197   0.1201   0.7640   0
1223.129   0.7442   0.1266   0.7675   0
1223.189   0.5358   0.1158   0.7710   0
1223.249   0.6765   0.1228   0.7743   0
1223.309   0.6935   0.1238   0.7777   0
1223.369   0.6516   0.1210   0.7809   0
1223.428   0.5934   0.1188   0.7841   0
1223.488   0.6927   0.1232   0.7872   0
1223.548   0.6759   0.1229   0.7902   0
1223.608   0.7667   0.1273   0.7932   0
1223.668   0.7167   0.1248   0.7961   0
1223.728   0.6828   0.1232   0.7990   0
1223.787   0.7326   0.1255   0.8018   0
1223.847   0.7701   0.1279   0.8045   0
1223.907   0.6953   0.1254   0.8072   0
1223.967   0.7220   0.1270   0.8099   0
1224.027   0.5835   0.1196   0.8125   0
1224.087   0.6963   0.1251   0.8150   0
1224.146   0.6736   0.1242   0.8175   0
1224.206   0.7977   0.1308   0.8199   0
1224.266   0.5906   0.1196   0.8223   0
1224.326   0.6970   0.1239   0.8247   0
1224.386   0.7401   0.1258   0.8270   0
1224.445   0.6326   0.1202   0.8292   0
1224.505   0.7153   0.1246   0.8314   0
1224.565   0.7485   0.1261   0.8336   0
1224.625   0.7487   0.1258   0.8357   0
1224.685   0.7486   0.1258   0.8378   0
1224.745   0.8631   0.1312   0.8399   0
1224.804   0.5816   0.1174   0.8419   0
1224.864   0.7462   0.1255   0.8439   0
1224.924   0.6553   0.1211   0.8458   0
1224.984   0.8028   0.1282   0.8477   0
1225.044   0.9754   0.1361   0.8496   0
1225.104   0.9260   0.1339   0.8514   0
1225.163   0.9345   0.1343   0.8532   1
1225.223   0.9504   0.1351   0.8550   1
1225.283   0.7858   0.1276   0.8567   1
1225.343   0.6873   0.1225   0.8585   1
1225.403   1.0242   0.1379   0.8601   1
1225.462   0.8677   0.1309   0.8618   1
1225.522   0.7270   0.1246   0.8634   1
1225.582   0.8906   0.1322   0.8650   1
1225.642   1.0466   0.1386   0.8666   1
1225.702   0.9479   0.1343   0.8681   1
1225.761   0.8582   0.1303   0.8696   1
1225.821   0.9973   0.1365   0.8711   1
1225.881   0.9535   0.1347   0.8726   1
1225.941   1.0681   0.1396   0.8740   1
1226.001   0.9368   0.1337   0.8754   1
1226.061   0.7811   0.1267   0.8768   1
1226.120   1.1553   0.1425   0.8782   1
1226.180   0.9997   0.1361   0.8796   1
1226.240   0.8686   0.1309   0.8809   1
1226.300   0.9417   0.1337   0.8822   1
1226.360   0.8699   0.1308   0.8835   1
1226.420   0.6979   0.1221   0.8847   1
1226.479   0.8367   0.1289   0.8860   1
1226.539   0.8292   0.1288   0.8872   1
1226.599   0.8216   0.1284   0.8884   1
1226.659   1.0015   0.1365   0.8896   1
1226.719   1.1647   0.1429   0.8908   1
1226.778   1.0421   0.1379   0.8919   1
1226.838   0.8706   0.1306   0.8931   1
1226.898   1.1732   0.1431   0.8942   1
1226.958   0.8794   0.1306   0.8953   1
1227.018   1.0654   0.1387   0.8963   1
1227.078   1.0075   0.1361   0.8974   1
1227.137   0.8692   0.1304   0.8985   1
1227.197   1.0115   0.1375   0.8995   1
1227.257   0.9672   0.1378   0.9005   1
1227.317   0.9136   0.1360   0.9015   1
1227.377   0.9558   0.1390   0.9025   1
1227.436   0.7379   0.1281   0.9035   1
1227.496   0.7183   0.1271   0.9044   1
1227.556   0.9171   0.1365   0.9054   1
1227.616   0.8728   0.1339   0.9063   0
1227.676   0.8730   0.1324   0.9072   0
1227.736   0.6889   0.1228   0.9081   0
1227.795   0.8647   0.1296   0.9090   0
1227.855   0.5883   0.1158   0.9099   0
1227.915   0.6944   0.1215   0.9107   0
1227.975   0.6942   0.1216   0.9116   0
1228.035   0.5965   0.1167   0.9124   0
1228.094   0.8074   0.1267   0.9133   0
1228.154   0.7096   0.1223   0.9141   0
1228.214   0.6282   0.1181   0.9149   0
1228.274   0.7496   0.1238   0.9157   0
1228.334   0.8516   0.1286   0.9165   0
1228.394   0.8106   0.1269   0.9172   0
1228.453   0.8182   0.1270   0.9180   0
1228.513   0.9246   0.1317   0.9188   0
1228.573   0.8271   0.1276   0.9195   0
1228.633   0.9157   0.1314   0.9202   0
1228.693   0.7056   0.1218   0.9210   0
1228.752   0.8127   0.1265   0.9217   0
1228.812   0.8143   0.1174   0.9224   0
1228.872   0.7320   0.1228   0.9231   0
1228.932   0.6581   0.1192   0.9238   0
1228.992   0.6490   0.1184   0.9244   0
1229.052   0.6896   0.1203   0.9251   0
1229.111   0.6974   0.1211   0.9258   0
1229.171   0.6731   0.1197   0.9264   0
1229.231   0.6812   0.1201   0.9270   0
1229.291   0.6724   0.1192   0.9277   0
1229.351   0.7691   0.1245   0.9283   0
1229.411   0.5756   0.1148   0.9289   0
1229.470   0.7690   0.1245   0.9295   0
1229.530   0.7369   0.1226   0.9301   0
1229.590   0.6477   0.1184   0.9307   0
1229.650   0.7437   0.1232   0.9313   0
1229.710   0.7110   0.1214   0.9319   0
1229.769   0.6711   0.1195   0.9325   0
1229.829   0.8397   0.1273   0.9330   0
1229.889   0.7272   0.1222   0.9336   0
1229.949   0.7498   0.1233   0.9341   0
1230.009   0.7015   0.1205   0.9347   0
1230.068   0.7011   0.1208   0.9352   0
1230.128   0.8616   0.1283   0.9357   0
1230.188   0.7568   0.1234   0.9363   0
1230.248   0.8930   0.1295   0.9368   0
1230.308   0.8129   0.1259   0.9373   0
1230.368   0.5403   0.1123   0.9378   0
1230.427   0.7704   0.1243   0.9383   0
1230.487   0.7393   0.1234   0.9388   0
1230.547   0.7424   0.1242   0.9393   0
1230.607   0.7328   0.1241   0.9398   0
1230.667   0.6293   0.1189   0.9402   0
1230.727   0.6662   0.1203   0.9407   0
1230.786   0.7925   0.1268   0.9412   0
1230.846   0.4491   0.1081   0.9416   0
1230.906   0.5700   0.1148   0.9421   0
1230.966   0.6659   0.1192   0.9425   0
1231.026   0.5063   0.1103   0.9430   0
1231.085   0.6181   0.1162   0.9434   0
1231.145   0.6415   0.1172   0.9439   0
1231.205   0.6726   0.1187   0.9443   0
1231.265   0.7221   0.1211   0.9447   0
1231.325   0.5939   0.1146   0.9451   0
1231.385   0.6655   0.1182   0.9455   0
1231.444   0.5382   0.1112   0.9460   0
1231.504   0.5781   0.1142   0.9464   0
1231.564   0.7293   0.1214   0.9468   0
1231.624   0.6176   0.1159   0.9472   0
1231.684   0.5145   0.1101   0.9476   0
1231.744   0.5864   0.1142   0.9479   0
1231.803   0.5295   0.1114   0.9483   0
1231.863   0.4493   0.1066   0.9487   0
1231.923   0.3698   0.1014   0.9491   0
1231.983   0.4889   0.1085   0.9495   0
1232.043   0.4174   0.1041   0.9498   0
1232.102   0.4733   0.1077   0.9502   0
1232.162   0.4363   0.1054   0.9505   0
1232.222   0.4643   0.1080   0.9509   0
1232.282   0.5453   0.1131   0.9512   0
1232.342   0.4433   0.1074   0.9516   0
1232.401   0.4336   0.1072   0.9519   0
1232.461   0.3554   0.1014   0.9523   0
1232.521   0.5885   0.1159   0.9526   0
1232.581   0.5478   0.1134   0.9530   0
1232.641   0.5096   0.1108   0.9533   0
1232.701   0.5197   0.1102   0.9536   0
1232.760   0.5188   0.1094   0.9539   0
1232.820   0.4713   0.1070   0.9543   0
1232.880   0.4473   0.1056   0.9546   0
1232.940   0.5503   0.1118   0.9549   0
1233.000   0.6603   0.1172   0.9552   0
1233.060   0.5570   0.1118   0.9555   0
1233.119   0.5642   0.1123   0.9558   0
1233.179   0.7145   0.1196   0.9561   0
1233.239   0.6667   0.1175   0.9564   0
1233.299   0.6583   0.1168   0.9567   0
1233.359   0.6657   0.1172   0.9570   0
1233.418   0.6826   0.1182   0.9573   0
1233.478   0.6189   0.1149   0.9576   0
1233.538   0.6107   0.1146   0.9578   0
1233.598   0.7605   0.1219   0.9581   0
1233.658   0.7845   0.1231   0.9584   0
1233.718   0.7608   0.1216   0.9587   0
1233.777   0.7214   0.1200   0.9589   0
1233.837   0.7276   0.1202   0.9592   0
1233.897   0.7832   0.1226   0.9595   0
1233.957   0.7207   0.1201   0.9597   0
1234.017   0.8868   0.1276   0.9600   0
1234.076   0.7055   0.1190   0.9603   0
1234.136   0.7688   0.1218   0.9605   0
1234.196   0.7374   0.1209   0.9608   0
1234.256   0.6982   0.1187   0.9610   0
1234.316   0.6351   0.1157   0.9613   0
1234.376   0.6825   0.1178   0.9615   0
1234.435   0.7138   0.1193   0.9618   0
1234.495   0.6584   0.1165   0.9620   0
1234.555   0.7456   0.1208   0.9623   0
1234.615   0.6976   0.1188   0.9625   0
1234.675   0.6969   0.1185   0.9627   0
1234.734   0.7279   0.1198   0.9630   0
1234.794   0.6738   0.1173   0.9632   0
1234.854   0.5163   0.1091   0.9634   0
1234.914   0.6579   0.1166   0.9636   0
1234.974   0.5716   0.1118   0.9639   0
1235.034   0.7209   0.1197   0.9641   0
1235.093   0.6415   0.1157   0.9643   0
1235.153   0.5698   0.1116   0.9645   0
1235.213   0.6242   0.1149   0.9648   0
1235.273   0.6398   0.1152   0.9650   0
1235.333   0.4906   0.1075   0.9652   0
1235.392   0.5607   0.1108   0.9654   0
1235.452   0.5927   0.1126   0.9656   0
1235.512   0.6542   0.1160   0.9658   0
1235.572   0.5397   0.1110   0.9660   0
1235.632   0.5818   0.1136   0.9662   0
1235.692   0.5028   0.1098   0.9664   0
1235.751   0.6512   0.1196   0.9666   0
1235.811   0.5671   0.1150   0.9668   0
1235.871   0.5490   0.1137   0.9670   0
1235.931   0.5660   0.1147   0.9672   0
1235.991   0.6651   0.1195   0.9674   0
1236.051   0.5816   0.1136   0.9676   0
1236.110   0.5257   0.1096   0.9678   0
1236.170   0.6775   0.1169   0.9680   0
1236.230   0.5920   0.1124   0.9682   0
1236.290   0.4824   0.1069   0.9683   0
1236.350   0.5140   0.1084   0.9685   0
1236.409   0.4904   0.1069   0.9687   0
1236.469   0.5992   0.1125   0.9689   0
1236.529   0.5294   0.1089   0.9691   0
1236.589   0.5993   0.1126   0.9692   0
1236.649   0.7241   0.1191   0.9694   0
1236.708   0.6459   0.1149   0.9696   0
1236.768   0.7080   0.1183   0.9698   0
1236.828   0.5365   0.1092   0.9699   0
1236.888   0.5669   0.1108   0.9701   0
1236.948   0.5516   0.1102   0.9703   0
1237.008   0.4656   0.1052   0.9704   0
1237.068   0.6446   0.1148   0.9706   0
1237.127   0.4801   0.1059   0.9708   0
1237.187   0.5723   0.1109   0.9709   0
1237.247   0.6342   0.1142   0.9711   0
1237.307   0.4785   0.1059   0.9712   0
1237.367   0.6497   0.1145   0.9714   0
1237.426   0.4865   0.1063   0.9716   0
1237.486   0.5254   0.1083   0.9717   0
1237.546   0.6810   0.1166   0.9719   0
1237.606   0.4945   0.1066   0.9720   0
1237.666   0.5643   0.1103   0.9722   0
1237.725   0.5251   0.1082   0.9723   0
1237.785   0.5405   0.1092   0.9725   0
1237.845   0.4158   0.1019   0.9726   0
1237.905   0.4159   0.1016   0.9728   0
1237.965   0.5556   0.1099   0.9729   0
1238.025   0.4859   0.1061   0.9731   0
1238.084   0.4628   0.1044   0.9732   0
1238.144   0.5560   0.1097   0.9733   0
1238.204   0.4392   0.1032   0.9735   0
1238.264   0.3770   0.0993   0.9736   0
1238.324   0.3384   0.0972   0.9738   0
1238.384   0.4389   0.1032   0.9739   0
1238.443   0.4707   0.1051   0.9740   0
1238.503   0.4009   0.1008   0.9742   0
1238.563   0.3155   0.0951   0.9743   0
1238.623   0.4547   0.1042   0.9744   0
1238.683   0.5242   0.1077   0.9746   0
1238.742   0.3460   0.0974   0.9747   0
1238.802   0.3688   0.0986   0.9748   0
1238.862   0.3763   0.0993   0.9750   0
1238.922   0.4322   0.1027   0.9751   0
1238.982   0.5514   0.1111   0.9752   0
1239.042   0.3518   0.0992   0.9754   0
1239.101   0.4548   0.1054   0.9755   0
1239.161   0.5206   0.1086   0.9756   0
1239.221   0.4345   0.1034   0.9757   0
1239.281   0.4542   0.1047   0.9759   0
1239.341   0.4379   0.1032   0.9760   0
1239.401   0.4307   0.1016   0.9761   0
1239.460   0.3996   0.1002   0.9762   0
1239.520   0.4459   0.1030   0.9763   0
1239.580   0.4220   0.1016   0.9765   0
1239.640   0.4912   0.1056   0.9766   0
1239.700   0.4528   0.1032   0.9767   0
1239.759   0.4524   0.1033   0.9768   0
1239.819   0.3682   0.0981   0.9769   0
1239.879   0.4449   0.1027   0.9770   0
1239.939   0.4755   0.1046   0.9771   0
1239.999   0.3594   0.0973   0.9773   0
1240.058   0.4593   0.1033   0.9774   0
1240.118   0.4208   0.1015   0.9775   0
1240.178   0.3440   0.0965   0.9776   0
1240.238   0.4211   0.1013   0.9777   0
1240.298   0.3905   0.0991   0.9778   0
1240.358   0.4991   0.0980   0.9779   0
1240.417   0.4751   0.1042   0.9780   0
1240.477   0.6202   0.1118   0.9781   0
1240.537   0.4586   0.1034   0.9782   0
1240.597   0.5734   0.1098   0.9783   0
1240.657   0.4993   0.1062   0.9784   0
1240.717   0.4905   0.1065   0.9785   0
1240.776   0.4626   0.1054   0.9786   0
1240.836   0.5956   0.1123   0.9788   0
1240.896   0.5803   0.1112   0.9789   0
1240.956   0.6371   0.1141   0.9790   0
1241.016   0.5747   0.1107   0.9791   0
1241.075   0.6036   0.1110   0.9792   0
1241.135   0.6090   0.1112   0.9792   0
1241.195   0.5547   0.1084   0.9793   0
1241.255   0.5618   0.1087   0.9794   0
1241.315   0.6074   0.1110   0.9795   0
1241.375   0.7598   0.1183   0.9796   0
1241.434   0.6909   0.1151   0.9797   0
1241.494   0.8814   0.1239   0.9798   0
1241.554   0.8815   0.1241   0.9799   1
1241.614   0.7821   0.1195   0.9800   1
1241.674   0.7953   0.1200   0.9801   1
1241.733   0.8330   0.1215   0.9802   1
1241.793   0.8322   0.1213   0.9803   1
1241.853   0.8547   0.1227   0.9804   1
1241.913   0.8486   0.1222   0.9805   1
1241.973   0.9103   0.1249   0.9806   1
1242.033   0.7726   0.1189   0.9806   1
1242.092   0.7030   0.1152   0.9807   1
1242.152   0.8548   0.1223   0.9808   1
1242.212   0.7561   0.1174   0.9809   1
1242.272   0.7341   0.1167   0.9810   1
1242.332   0.7872   0.1194   0.9811   1
1242.391   0.8464   0.1219   0.9812   1
1242.451   0.8460   0.1216   0.9812   1
1242.511   0.9147   0.1249   0.9813   1
1242.571   0.8026   0.1201   0.9814   1
1242.631   0.7715   0.1185   0.9815   1
1242.691   0.6347   0.1121   0.9816   1
1242.750   0.8932   0.1235   0.9817   1
1242.810   0.7698   0.1182   0.9817   1
1242.870   0.8447   0.1215   0.9818   1
1242.930   0.7225   0.1156   0.9819   1
1242.990   0.8662   0.1225   0.9820   1
1243.049   1.0552   0.1304   0.9821   1
1243.109   0.8285   0.1207   0.9821   1
1243.169   0.8361   0.1210   0.9822   1
1243.229   0.7707   0.1184   0.9823   1
1243.289   0.9897   0.1277   0.9824   1
1243.349   0.7771   0.1184   0.9824   1
1243.408   0.8599   0.1222   0.9825   1
1243.468   0.8292   0.1207   0.9826   1
1243.528   0.9423   0.1253   0.9827   1
1243.588   0.8261   0.1205   0.9827   1
1243.648   0.8776   0.1226   0.9828   1
1243.708   1.1185   0.1323   0.9829   1
1243.767   0.8618   0.1219   0.9830   1
1243.827   0.7560   0.1170   0.9830   1
1243.887   0.7475   0.1167   0.9831   1
1243.947   0.9052   0.1237   0.9832   1
1244.007   0.7542   0.1176   0.9832   1
1244.066   0.9428   0.1282   0.9833   1
1244.126   1.0159   0.1328   0.9834   1
1244.186   0.9399   0.1295   0.9835   1
1244.246   0.8451   0.1245   0.9835   1
1244.306   1.0214   0.1321   0.9836   1
1244.365   1.0134   0.1318   0.9837   1
1244.425   0.9462   0.1280   0.9837   1
1244.485   1.1333   0.1341   0.9838   1
1244.545   0.9184   0.1239   0.9839   1
1244.605   0.9762   0.1264   0.9839   1
1244.665   1.0665   0.1298   0.9840   0
1244.724   1.0362   0.1286   0.9841   0
1244.784   0.9163   0.1237   0.9841   0
1244.844   0.9467   0.1250   0.9842   0
1244.904   0.8869   0.1226   0.9843   0
1244.964   1.0073   0.1276   0.9843   0
1245.024   0.9387   0.1247   0.9844   0
1245.083   1.1710   0.1339   0.9845   0
1245.143   1.1934   0.1347   0.9845   0
1245.203   1.0449   0.1289   0.9846   0
1245.263   1.2056   0.1352   0.9846   0
1245.323   1.1818   0.1338   0.9847   0
1245.382   1.1592   0.1330   0.9848   0
1245.442   1.2413   0.1364   0.9848   0
1245.502   1.1733   0.1337   0.9849   0
1245.562   1.3670   0.1410   0.9850   0
1245.622   1.3736   0.1412   0.9850   0
1245.682   1.2380   0.1359   0.9851   0
1245.741   1.2145   0.1351   0.9851   0
1245.801   1.3264   0.1389   0.9852   0
1245.861   1.5867   0.1481   0.9852   0
1245.921   1.3997   0.1417   0.9853   0
1245.981   1.3764   0.1409   0.9854   0
1246.041   1.5037   0.1453   0.9854   0
1246.100   1.4586   0.1437   0.9855   0
1246.160   1.4728   0.1443   0.9855   0
1246.220   1.3091   0.1384   0.9856   0
1246.280   1.2571   0.1364   0.9857   0
1246.340   1.4058   0.1419   0.9857   0
1246.399   1.3314   0.1390   0.9858   0
1246.459   1.4131   0.1420   0.9858   0
1246.519   1.3239   0.1386   0.9859   0
1246.579   1.6575   0.1501   0.9859   0
1246.639   1.2114   0.1345   0.9860   0
1246.698   1.4779   0.1443   0.9860   0
1246.758   1.3956   0.1412   0.9861   0
1246.818   1.4547   0.1434   0.9861   0
1246.878   1.4271   0.1421   0.9862   0
1246.938   1.1077   0.1306   0.9862   0
1246.998   1.1884   0.1338   0.9863   0
1247.057   1.4090   0.1415   0.9864   0
1247.117   1.1719   0.1326   0.9864   0
1247.177   1.1425   0.1317   0.9865   0
1247.237   1.3867   0.1408   0.9865   0
1247.297   1.1970   0.1350   0.9866   0
1247.357   1.2761   0.1391   0.9866   0
1247.416   1.1467   0.1345   0.9867   0
1247.476   1.1386   0.1339   0.9867   0
1247.536   1.1189   0.1329   0.9868   0
1247.596   1.0294   0.1296   0.9868   0
1247.656   1.1061   0.1329   0.9869   0
1247.715   1.1783   0.1345   0.9869   0
1247.775   1.1765   0.1329   0.9870   0
1247.835   1.0974   0.1298   0.9870   0
1247.895   1.0668   0.1285   0.9871   0
1247.955   1.2124   0.1342   0.9871   0
1248.015   1.0423   0.1274   0.9872   0
1248.074   1.0273   0.1269   0.9872   0
1248.134   1.0631   0.1279   0.9872   0
1248.194   1.0773   0.1287   0.9873   0
1248.254   1.0034   0.1255   0.9873   0
1248.314   1.0491   0.1278   0.9874   0
1248.373   0.9749   0.1246   0.9874   0
1248.433   0.9595   0.1240   0.9875   0
1248.493   0.9666   0.1243   0.9875   0
1248.553   0.8775   0.1202   0.9876   0
1248.613   0.9448   0.1234   0.9876   0
1248.673   0.9005   0.1214   0.9877   0
1248.732   0.9445   0.1233   0.9877   0
1248.792   0.8464   0.1188   0.9878   0
1248.852   1.0012   0.1254   0.9878   0
1248.912   1.0311   0.1265   0.9878   0
1248.972   0.8982   0.1209   0.9879   0
1249.031   0.9046   0.1223   0.9879   0
1249.091   0.8827   0.1220   0.9880   0
1249.151   0.6110   0.1098   0.9880   0
1249.211   0.6129   0.1097   0.9881   0
1249.271   0.7198   0.1145   0.9881   0
1249.331   0.6961   0.1140   0.9881   0
1249.390   0.6313   0.1107   0.9882   0
1249.450   0.6303   0.1096   0.9882   0
1249.510   0.7000   0.1118   0.9883   0
1249.570   0.5977   0.1069   0.9883   0
1249.630   0.5392   0.1041   0.9883   0
1249.689   0.5756   0.1055   0.9884   0
1249.749   0.5460   0.1040   0.9884   0
1249.809   0.5899   0.1065   0.9885   0
1249.869   0.5957   0.1067   0.9885   0
1249.929   0.6612   0.1100   0.9886   0
1249.989   0.5802   0.1059   0.9886   0
1250.048   0.6237   0.1081   0.9886   0
1250.108   0.6816   0.1106   0.9887   0
1250.168   0.7475   0.1138   0.9887   0
1250.228   0.7623   0.1143   0.9888   0
1250.288   0.7915   0.1157   0.9888   0
1250.348   0.7478   0.1140   0.9888   0
1250.407   0.7331   0.1132   0.9889   0
1250.467   0.6744   0.1103   0.9889   0
1250.527   0.5429   0.1039   0.9889   0
1250.587   0.6525   0.1089   0.9890   0
1250.647   0.5803   0.1057   0.9890   0
1250.706   0.6386   0.1085   0.9891   0
1250.766   0.7701   0.1150   0.9891   0
1250.826   0.7851   0.1153   0.9891   0
1250.886   0.9160   0.1211   0.9892   0
1250.946   0.9380   0.1223   0.9892   0
1251.005   0.8931   0.1202   0.9892   0
1251.065   0.8634   0.1186   0.9893   0
1251.125   1.0227   0.1253   0.9893   0
1251.185   0.9712   0.1233   0.9894   0
1251.245   1.0212   0.1252   0.9894   0
1251.305   1.1006   0.1282   0.9894   0
1251.365   0.9912   0.1234   0.9895   0
1251.424   1.0129   0.1248   0.9895   0
1251.484   0.9914   0.1240   0.9895   0
1251.544   1.0933   0.1280   0.9896   0
1251.604   1.0264   0.1252   0.9896   0
1251.664   1.0549   0.1262   0.9896   0
1251.723   0.9743   0.1230   0.9897   0
1251.783   0.8801   0.1189   0.9897   0
1251.843   0.9450   0.1216   0.9897   0
1251.903   1.0141   0.1153   0.9898   0
1251.963   0.9228   0.1209   0.9898   0
1252.022   0.7555   0.1133   0.9898   0
1252.082   0.8061   0.1157   0.9899   0
1252.142   0.9521   0.1221   0.9899   0
1252.202   0.6766   0.1095   0.9899   0
1252.262   0.7777   0.1145   0.9900   0
1252.322   0.6837   0.1099   0.9900   0
1252.381   0.7392   0.1139   0.9900   0
1252.441   0.7106   0.1135   0.9901   0
1252.501   0.7304   0.1156   0.9901   0
1252.561   0.7862   0.1185   0.9901   0
1252.621   0.7077   0.1148   0.9902   0
1252.681   0.8565   0.1218   0.9902   0
1252.740   0.8309   0.1203   0.9902   0
1252.800   0.8754   0.1216   0.9903   0
1252.860   0.7826   0.1161   0.9903   0
1252.920   0.8752   0.1191   0.9903   0
1252.980   0.7969   0.1151   0.9904   0
1253.039   0.8466   0.1169   0.9904   0
1253.099   0.8041   0.1154   0.9904   0
1253.159   0.9130   0.1199   0.9904   0
1253.219   0.9351   0.1209   0.9905   0
1253.279   0.8414   0.1169   0.9905   0
1253.339   0.8271   0.1163   0.9905   0
1253.398   0.8993   0.1194   0.9906   0
1253.458   0.7621   0.1135   0.9906   0
1253.518   0.7905   0.1145   0.9906   0
1253.578   0.6383   0.1071   0.9907   0
1253.638   0.6524   0.1082   0.9907   0
1253.697   0.7824   0.1143   0.9907   0
1253.757   0.5735   0.1039   0.9907   0
1253.817   0.5086   0.1006   0.9908   0
1253.877   0.6098   0.1060   0.9908   0
1253.937   0.6175   0.1063   0.9908   0
1253.997   0.6895   0.1099   0.9909   0
1254.056   0.8334   0.1157   0.9909   0
1254.116   0.8479   0.1173   0.9909   0
1254.176   0.9628   0.1218   0.9909   0
1254.236   0.6741   0.1090   0.9910   0
1254.296   0.7528   0.1127   0.9910   0
1254.355   0.8821   0.1184   0.9910   0
1254.415   0.8453   0.1166   0.9911   0
1254.475   0.8307   0.1158   0.9911   0
1254.535   0.8173   0.1155   0.9911   0
1254.595   0.7816   0.1139   0.9911   0
1254.655   0.9110   0.1196   0.9912   0
1254.714   0.7453   0.1121   0.9912   0
1254.774   0.8680   0.1178   0.9912   0
1254.834   0.7667   0.1132   0.9912   0
1254.894   0.9811   0.1224   0.9913   0
1254.954   0.8662   0.1177   0.9913   0
1255.013   0.6353   0.1070   0.9913   0
1255.073   0.8154   0.1154   0.9914   0
1255.133   0.6931   0.1097   0.9914   0
1255.193   0.9165   0.1194   0.9914   0
1255.253   0.8157   0.1152   0.9914   0
1255.313   0.7149   0.1109   0.9915   0
1255.372   0.9181   0.1197   0.9915   0
1255.432   0.6595   0.1082   0.9915   0
1255.492   0.8048   0.1151   0.9915   0
1255.552   0.8553   0.1169   0.9916   0
1255.612   1.0213   0.1240   0.9916   0
1255.672   0.7879   0.1147   0.9916   0
1255.731   0.8403   0.1180   0.9916   0
1255.791   0.6543   0.1095   0.9917   0
1255.851   0.8210   0.1176   0.9917   0
1255.911   0.6628   0.1099   0.9917   0
1255.971   0.7889   0.1159   0.9917   0
1256.030   0.7813   0.1157   0.9918   0
1256.090   0.6343   0.1081   0.9918   0
1256.150   0.7269   0.1115   0.9918   0
1256.210   0.8860   0.1185   0.9918   1
1256.270   0.8357   0.1164   0.9919   1
1256.329   0.7490   0.1126   0.9919   1
1256.389   0.8071   0.1149   0.9919   1
1256.449   0.8502   0.1169   0.9919   1
1256.509   0.9154   0.1199   0.9920   1
1256.569   0.7640   0.1133   0.9920   1
1256.629   0.9020   0.1194   0.9920   1
1256.688   1.1267   0.1284   0.9920   1
1256.748   0.8086   0.1154   0.9920   1
1256.808   0.9831   0.1229   0.9921   1
1256.868   0.9833   0.1228   0.9921   1
1256.928   0.8602   0.1176   0.9921   1
1256.988   0.9611   0.1216   0.9921   1
1257.047   0.9609   0.1219   0.9922   1
1257.107   0.8649   0.1173   0.9922   1
1257.167   1.0753   0.1264   0.9922   1
1257.227   1.0104   0.1237   0.9922   1
1257.287   0.9310   0.1205   0.9923   1
1257.346   0.8878   0.1188   0.9923   1
1257.406   1.0019   0.1241   0.9923   1
1257.466   0.8834   0.1204   0.9923   1
1257.526   0.9662   0.1242   0.9923   1
1257.586   1.1273   0.1310   0.9924   1
1257.646   0.9371   0.1231   0.9924   1
1257.705   0.8804   0.1204   0.9924   1
1257.765   0.9421   0.1233   0.9924   1
1257.825   0.9203   0.1220   0.9924   1
1257.885   0.9883   0.1233   0.9925   1
1257.945   0.8920   0.1192   0.9925   1
1258.005   0.8877   0.1191   0.9925   1
1258.064   0.8964   0.1197   0.9925   1
1258.124   1.0269   0.1250   0.9926   1
1258.184   0.8376   0.1173   0.9926   1
1258.244   0.9992   0.1238   0.9926   1
1258.304   1.0218   0.1248   0.9926   1
1258.363   0.9047   0.1199   0.9926   1
1258.423   0.9782   0.1231   0.9927   1
1258.483   0.8907   0.1197   0.9927   1
1258.543   0.9132   0.1207   0.9927   1
1258.603   0.8918   0.1197   0.9927   0
1258.662   0.8624   0.1186   0.9927   0
1258.722   0.8777   0.1190   0.9928   0
1258.782   0.9957   0.1241   0.9928   0
1258.842   0.9456   0.1223   0.9928   0
1258.902   0.9327   0.1216   0.9928   0
1258.962   0.7706   0.1147   0.9928   0
1259.021   0.7192   0.1123   0.9929   0
1259.081   0.8014   0.1163   0.9929   0
1259.141   0.7653   0.1147   0.9929   0
1259.201   0.7217   0.1128   0.9929   0
1259.261   0.7217   0.1124   0.9929   0
1259.321   0.6034   0.1070   0.9930   0
1259.380   0.4629   0.0990   0.9930   0
1259.440   0.5523   0.1040   0.9930   0
1259.500   0.4715   0.0997   0.9930   0
1259.560   0.4570   0.0989   0.9930   0
1259.620   0.5612   0.1048   0.9931   0
1259.679   0.5320   0.1036   0.9931   0
1259.739   0.7491   0.1142   0.9931   0
1259.799   0.5121   0.1022   0.9931   0
1259.859   0.5498   0.1047   0.9931   0
1259.919   0.2894   0.0894   0.9931   0
1259.979   0.3792   0.0950   0.9932   0
1260.038   0.2973   0.0894   0.9932   0
1260.098   0.3712   0.0941   0.9932   0
1260.158   0.2446   0.0859   0.9932   0
1260.218   0.1777   0.0810   0.9932   0
1260.278   0.1033   0.0750   0.9933   0
1260.337   0.0810   0.0728   0.9933   0
1260.397   0.0583   0.0709   0.9933   0
1260.457   0.0359   0.0687   0.9933   0
1260.517   0.0733   0.0723   0.9933   0
1260.577   0.0285   0.0680   0.9933   0
1260.637   0.0660   0.0716   0.9934   0
1260.696   0.0212   0.0673   0.9934   0
1260.756   0.0534   0.0706   0.9934   0
1260.816   0.0614   0.0717   0.9934   0
1260.876   0.1010   0.0758   0.9934   0
1260.936   0.1263   0.0780   0.9935   0
1260.995   0.0888   0.0749   0.9935   0
1261.055   0.0816   0.0743   0.9935   0
1261.115   0.0739   0.0737   0.9935   0
1261.175   0.1304   0.0786   0.9935   0
1261.235   0.0790   0.0738   0.9935   0
1261.295   0.1390   0.0790   0.9936   0
1261.354   0.1375   0.0788   0.9936   0
1261.414   0.1343   0.0780   0.9936   0
1261.474   0.1571   0.0800   0.9936   0
1261.534   0.1042   0.0755   0.9936   0
1261.594   0.0817   0.0735   0.9936   0
1261.653   0.1569   0.0802   0.9937   0
1261.713   0.2096   0.0843   0.9937   0
1261.773   0.1871   0.0825   0.9937   0
1261.833   0.1192   0.0770   0.9937   0
1261.893   0.1420   0.0788   0.9937   0
1261.953   0.2182   0.0850   0.9937   0
1262.012   0.2031   0.0838   0.9938   0
1262.072   0.1954   0.0834   0.9938   0
1262.132   0.1795   0.0822   0.9938   0
1262.192   0.2323   0.0859   0.9938   0
1262.252   0.2249   0.0849   0.9938   0
1262.312   0.2171   0.0848   0.9938   0
1262.371   0.1416   0.0790   0.9939   0
1262.431   0.1491   0.0794   0.9939   0
1262.491   0.1944   0.0831   0.9939   0
1262.551   0.1641   0.0809   0.9939   0
1262.611   0.1790   0.0817   0.9939   0
1262.670   0.1331   0.0782   0.9939   0
1262.730   0.1633   0.0809   0.9939   0
1262.790   0.2164   0.0849   0.9940   0
1262.850   0.3750   0.0954   0.9940   0
1262.910   0.5031   0.1030   0.9940   0
1262.969   0.6007   0.1083   0.9940   0
1263.029   0.7741   0.1168   0.9940   0
1263.089   0.8792   0.1215   0.9940   0
1263.149   0.9018   0.1224   0.9941   0
1263.209   0.8563   0.1202   0.9941   0
1263.269   0.8031   0.1179   0.9941   0
1263.328   0.9082   0.1225   0.9941   0
1263.388   0.9243   0.1232   0.9941   0
1263.448   0.8938   0.1221   0.9941   0
1263.508   0.9137   0.1139   0.9941   1
1263.568   1.0064   0.1266   0.9942   1
1263.628   1.0135   0.1271   0.9942   1
1263.687   0.9446   0.1241   0.9942   1
1263.747   0.8914   0.1215   0.9942   1
1263.807   0.8826   0.1212   0.9942   1
1263.867   0.7841   0.1166   0.9942   1
1263.927   0.8300   0.1187   0.9942   1
1263.986   0.7988   0.1173   0.9943   1
1264.046   0.8439   0.1193   0.9943   1
1264.106   0.8888   0.1213   0.9943   1
1264.166   1.1621   0.1340   0.9943   1
1264.226   0.9143   0.1242   0.9943   1
1264.286   0.7462   0.1166   0.9943   1
1264.345   0.8651   0.1225   0.9943   1
1264.405   0.8381   0.1208   0.9944   1
1264.465   0.8426   0.1210   0.9944   1
1264.525   1.0182   0.1281   0.9944   1
1264.585   0.8358   0.1189   0.9944   1
1264.645   0.9549   0.1233   0.9944   1
1264.704   0.9760   0.1243   0.9944   1
1264.764   0.9009   0.1209   0.9944   1
1264.824   0.7742   0.1156   0.9945   1
1264.884   0.7738   0.1153   0.9945   1
1264.944   0.8840   0.1202   0.9945   1
1265.003   1.0232   0.1258   0.9945   1
1265.063   1.0657   0.1273   0.9945   1
1265.123   0.9251   0.1219   0.9945   1
1265.183   0.9162   0.1211   0.9945   1
1265.243   1.0247   0.1253   0.9945   1
1265.302   1.0228   0.1251   0.9946   1
1265.362   0.8601   0.1183   0.9946   1
1265.422   0.9317   0.1210   0.9946   1
1265.482   0.9594   0.1224   0.9946   1
1265.542   1.0599   0.1259   0.9946   1
1265.602   0.9419   0.1212   0.9946   1
1265.661   0.9338   0.1207   0.9946   1
1265.721   0.8381   0.1168   0.9946   1
1265.781   0.8152   0.1157   0.9947   1
1265.841   0.7270   0.1116   0.9947   1
1265.901   0.7184   0.1119   0.9947   1
1265.961   0.7470   0.1141   0.9947   1
1266.020   0.7952   0.1165   0.9947   1
1266.080   0.7254   0.1130   0.9947   1
1266.140   0.7288   0.1143   0.9947   1
1266.200   0.6499   0.1108   0.9948   1
1266.260   0.6642   0.1115   0.9948   1
1266.319   0.7657   0.1152   0.9948   1
1266.379   0.6357   0.1078   0.9948   1
1266.439   0.6844   0.1090   0.9948   1
1266.499   0.7975   0.1139   0.9948   1
1266.559   0.6076   0.1046   0.9948   1
1266.619   0.6492   0.1064   0.9948   1
1266.678   0.7910   0.1130   0.9948   1
1266.738   0.8190   0.1142   0.9949   1
1266.798   0.7821   0.1125   0.9949   1
1266.858   0.7244   0.1098   0.9949   1
1266.918   0.8234   0.1141   0.9949   1
1266.977   0.8869   0.1167   0.9949   1
1267.037   0.7500   0.1109   0.9949   1
1267.097   0.8830   0.1165   0.9949   1
1267.157   0.8465   0.1148   0.9949   1
1267.217   0.8382   0.1142   0.9950   1
1267.277   0.8439   0.1144   0.9950   1
1267.336   0.8984   0.1165   0.9950   1
1267.396   0.9601   0.1191   0.9950   1
1267.456   0.9307   0.1177   0.9950   1
1267.516   0.9712   0.1191   0.9950   1
1267.576   0.9488   0.1183   0.9950   1
1267.635   0.8918   0.1158   0.9950   1
1267.695   1.0294   0.1213   0.9950   1
1267.755   0.9796   0.1193   0.9951   1
1267.815   0.8536   0.1139   0.9951   1
1267.875   1.1286   0.1248   0.9951   1
1267.935   1.0236   0.1205   0.9951   1
1267.994   0.9124   0.1160   0.9951   1
1268.054   0.8766   0.1146   0.9951   1
1268.114   1.0129   0.1200   0.9951   1
1268.174   0.8746   0.1142   0.9951   1
1268.234   0.9745   0.1182   0.9952   1
1268.293   0.9531   0.1172   0.9952   1
1268.353   0.8746   0.1139   0.9952   1
1268.413   0.8978   0.1159   0.9952   1
1268.473   0.8599   0.1152   0.9952   1
1268.533   0.9757   0.1217   0.9952   1
1268.593   0.8796   0.1183   0.9952   1
1268.652   0.9354   0.1202   0.9952   1
1268.712   0.8597   0.1160   0.9952   1
1268.772   0.9609   0.1188   0.9952   1
1268.832   1.0228   0.1202   0.9953   1
1268.892   0.9112   0.1152   0.9953   1
1268.952   1.0057   0.1189   0.9953   1
1269.011   0.8932   0.1142   0.9953   1
1269.071   0.9849   0.1177   0.9953   1
1269.131   0.9891   0.1178   0.9953   1
1269.191   1.0892   0.1217   0.9953   1
1269.251   1.1000   0.1235   0.9953   1
1269.310   0.9750   0.1197   0.9953   1
1269.370   1.0713   0.1260   0.9954   1
1269.430   0.9857   0.1236   0.9954   1
1269.490   0.9982   0.1249   0.9954   1
1269.550   0.8912   0.1196   0.9954   1
1269.609   0.8333   0.1155   0.9954   1
1269.669   0.8922   0.1156   0.9954   1
1269.729   0.8789   0.1139   0.9954   1
1269.789   0.9370   0.1154   0.9954   1
1269.849   1.0073   0.1174   0.9954   1
1269.909   0.8389   0.1111   0.9954   1
1269.969   0.8852   0.1128   0.9955   1
1270.028   1.0119   0.1179   0.9955   1
1270.088   0.7974   0.1093   0.9955   1
1270.148   0.9650   0.1158   0.9955   1
1270.208   1.0649   0.1200   0.9955   1
1270.268   1.0027   0.1175   0.9955   1
1270.327   0.9490   0.1154   0.9955   1
1270.387   0.9158   0.1142   0.9955   1
1270.447   0.8423   0.1111   0.9955   1
1270.507   0.8822   0.1126   0.9955   1
1270.567   0.7622   0.1077   0.9956   1
1270.626   0.9816   0.1165   0.9956   1
1270.686   1.0209   0.1182   0.9956   1
1270.746   0.7888   0.1212   0.9956   1
1270.806   0.8264   0.1277   0.9956   1
1270.866   0.8708   0.1295   0.9956   1
1270.926   0.9234   0.1322   0.9956   1
1270.985   0.8908   0.1309   0.9956   1
1271.045   0.9539   0.1346   0.9956   1
1271.105   1.1568   0.1451   0.9956   1
1271.165   0.7458   0.1267   0.9957   1
1271.225   0.6149   0.1194   0.9957   1
1271.285   0.7507   0.1269   0.9957   1
1271.344   0.8978   0.1330   0.9957   1
1271.404   0.9126   0.1327   0.9957   1
1271.464   0.8553   0.1292   0.9957   1
1271.524   0.8237   0.1276   0.9957   1
1271.584   0.8268   0.1280   0.9957   1
1271.643   0.7110   0.1232   0.9957   1
1271.703   0.8102   0.1302   0.9957   1
1271.763   0.7355   0.1291   0.9957   1
1271.823   0.8475   0.1354   0.9958   1
1271.883   1.0124   0.1431   0.9958   1
1271.943   0.9706   0.1395   0.9958   1
1272.002   1.0125   0.1388   0.9958   1
1272.062   0.8385   0.1295   0.9958   1
1272.122   1.0607   0.1392   0.9958   1
1272.182   0.8850   0.1306   0.9958   1
1272.242   0.9535   0.1339   0.9958   1
1272.302   1.0573   0.1385   0.9958   1
1272.361   0.9043   0.1314   0.9958   1
1272.421   1.1278   0.1414   0.9958   1
1272.481   0.9481   0.1334   0.9959   1
1272.541   1.0406   0.1386   0.9959   1
1272.601   1.1008   0.1426   0.9959   1
1272.660   1.0201   0.1389   0.9959   1
1272.720   0.8560   0.1318   0.9959   1
1272.780   1.0318   0.1402   0.9959   1
1272.840   0.8774   0.1337   0.9959   1
1272.900   0.9049   0.1341   0.9959   1
1272.959   1.0877   0.1414   0.9959   1
1273.019   1.0220   0.1373   0.9959   1
1273.079   0.8168   0.1275   0.9959   1
1273.139   1.1475   0.1427   0.9959   1
1273.199   1.0227   0.1371   0.9960   1
1273.259   0.8891   0.1308   0.9960   1
1273.318   1.0359   0.1383   0.9960   1
1273.378   0.8609   0.1304   0.9960   1
1273.438   1.0257   0.1408   0.9960   1
1273.498   0.8923   0.1370   0.9960   1
1273.558   0.7416   0.1297   0.9960   1
1273.618   1.1109   0.1482   0.9960   1
1273.677   0.9047   0.1364   0.9960   1
1273.737   1.0680   0.1420   0.9960   1
1273.797   0.9820   0.1369   0.9960   1
1273.857   0.8841   0.1314   0.9960   1
1273.917   0.8545   0.1302   0.9961   1
1273.976   0.8230   0.1575   0.9961   1
1274.036   0.9813   0.1664   0.9961   1
1274.096   0.8947   0.1610   0.9961   1
1274.156   0.8820   0.1599   0.9961   1
1274.216   1.0441   0.1695   0.9961   1
1274.276   0.9549   0.1664   0.9961   1
1274.335   0.9784   0.1711   0.9961   1
1274.395   0.9205   0.1680   0.9961   1
1274.455   0.9191   0.1723   0.9961   1
1274.515   0.8965   0.1728   0.9961   1
1274.575   1.0178   0.1834   0.9961   1
1274.634   0.9720   0.1763   0.9961   1
1274.694   0.8855   0.1669   0.9962   1
1274.754   1.1101   0.1741   0.9962   1
1274.814   0.7768   0.1542   0.9962   1
1274.874   1.1100   0.1730   0.9962   1
1274.934   0.8416   0.1583   0.9962   1
1274.993   1.1903   0.1774   0.9962   1
1275.053   0.9839   0.1540   0.9962   1
1275.113   0.9864   0.1663   0.9962   1
1275.173   0.9998   0.1671   0.9962   1
1275.233   0.8459   0.1585   0.9962   1
1275.292   0.9230   0.1626   0.9962   1
1275.352   0.8947   0.1616   0.9962   1
1275.412   0.9084   0.1618   0.9962   1
1275.472   0.8015   0.1559   0.9963   1
1275.532   0.8286   0.1575   0.9963   1
1275.592   1.0030   0.1675   0.9963   1
1275.651   1.0043   0.1832   0.9963   1
1275.711   0.8082   0.2213   0.9963   1
1275.771   0.8352   0.2227   0.9963   1
1275.831   1.1597   0.2495   0.9963   1
1275.891   0.8351   0.2231   0.9963   1
1275.950   0.9683   0.2348   0.9963   1
1276.010   0.9135   0.2301   0.9963   1
1276.070   1.1012   0.2446   0.9963   1
1276.130   1.0203   0.2385   0.9963   1
1276.190   0.7514   0.2153   0.9963   1
1276.250   0.7529   0.2167   0.9964   1
1276.309   0.8063   0.2213   0.9964   1
1276.369   0.8337   0.2230   0.9964   1
1276.429   0.9130   0.2305   0.9964   1
1276.489   0.9110   0.2300   0.9964   1
1276.549   1.0181   0.2380   0.9964   1
1276.609   0.6972   0.2112   0.9964   1
1276.668   1.1053   0.2497   0.9964   1
1276.728   0.6257   0.2127   0.9964   1
1276.788   1.1557   0.2737   0.9964   1
1276.848   0.7324   0.2497   0.9964   1
1276.908   1.0164   0.2826   0.9964   1
1276.967   0.7352   0.2456   0.9964   1
1277.027   0.8986   0.2502   0.9964   1
1277.087   0.5915   0.2092   0.9965   1
1277.147   0.6304   0.2095   0.9965   1
1277.207   0.7698   0.2195   0.9965   1
1277.266   0.8062   0.2224   0.9965   1
1277.326   0.9204   0.2303   0.9965   1
1277.386   0.6165   0.2021   0.9965   1
1277.446   0.8564   0.2238   0.9965   1
1277.506   0.9108   0.2302   0.9965   1
1277.566   0.7222   0.2138   0.9965   1
1277.625   0.8747   0.2337   0.9965   1
1277.685   0.6607   0.2190   0.9965   1
1277.745   0.9240   0.2421   0.9965   1
1277.805   0.5512   0.2079   0.9965   1
1277.865   0.5945   0.2145   0.9965   1
1277.925   1.0140   0.2569   0.9965   1
1277.984   0.4292   0.1194   0.9966   1
1278.044   0.3607   0.1096   0.9966   1
1278.104   0.4010   0.1101   0.9966   1
1278.164   0.3738   0.1083   0.9966   1
1278.224   0.4009   0.1105   0.9966   1
1278.283   0.3875   0.1095   0.9966   1
1278.343   0.4279   0.1131   0.9966   1
1278.403   0.4153   0.1114   0.9966   1
1278.463   0.5362   0.1213   0.9966   1
1278.523   0.3868   0.1092   0.9966   1
1278.583   0.3331   0.1044   0.9966   1
1278.642   0.3207   0.1034   0.9966   1
1278.702   0.2805   0.0993   0.9966   1
1278.762   0.2670   0.0981   0.9966   1
1278.822   0.3208   0.1028   0.9966   1
1278.882   0.4563   0.1156   0.9967   1
1278.942   0.2679   0.0981   0.9967   1
1279.001   0.2818   0.0962   0.9967   1
1279.061   0.0000   0.0000   0.9967   1
1279.121   0.0000   0.0000   0.9967   1
1279.181   0.0000   0.0000   0.9967   1
1279.241   0.0000   0.0000   0.9967   1
1279.300   0.0000   0.0000   0.9967   1
1279.360   0.0000   0.0000   0.9967   1
1279.420   0.0000   0.0000   0.9967   1
1279.480   0.0000   0.0000   0.9967   1
1279.540   0.0000   0.0000   0.9967   1
1279.599   0.0000   0.0000   0.9967   1
1279.659   0.0000   0.0000   0.9967   1
1279.719   0.0000   0.0000   0.9967   1
1279.779   0.0000   0.0000   0.9967   1
1279.839   0.0000   0.0000   0.9967   1
1279.899   0.0000   0.0000   0.9968   1
1279.958   0.0000   0.0000   0.9968   1
1280.018   0.0000   0.0000   0.9968   1
1280.078   0.0000   0.0000   0.9968   1
1280.138   0.0000   0.0000   0.9968   1
1280.198   0.0000   0.0000   0.9968   1
1280.258   0.0000   0.0000   0.9968   1
1280.317   0.0000   0.0000   0.9968   1
1280.377   0.0000   0.0000   0.9968   1
1280.437   0.0000   0.0000   0.9968   1
1280.497   0.0000   0.0000   0.9968   1
1280.557   0.0000   0.0000   0.9968   1
1280.616   0.0000   0.0000   0.9968   1
1280.676   0.0000   0.0000   0.9968   1
1280.736   0.0000   0.0000   0.9968   1
1280.796   0.0000   0.0000   0.9968   1
1280.856   0.0000   0.0000   0.9969   1
1280.916   0.0000   0.0000   0.9969   1
1280.975   0.0000   0.0000   0.9969   1
1281.035   0.0000   0.0000   0.9969   1
1281.095   0.0000   0.0000   0.9969   1
1281.155   0.0000   0.0000   0.9969   1
1281.215   0.0000   0.0000   0.9969   1
1281.274   0.0000   0.0000   0.9969   1
1281.334   0.0000   0.0000   0.9969   1
1281.394   0.0000   0.0000   0.9969   1
1281.454   0.0000   0.0000   0.9969   1
1281.514   0.0000   0.0000   0.9969   1
1281.574   0.0000   0.0000   0.9969   1
1281.633   0.0000   0.0000   0.9969   1
1281.693   0.0000   0.0000   0.9969   1
1281.753   0.0000   0.0000   0.9969   1
1281.813   0.0000   0.0000   0.9969   1
1281.873   0.0000   0.0000   0.9969   1
1281.932   0.0000   0.0000   0.9970   1
1281.992   0.0000   0.0000   0.9970   1
1282.052   0.0000   0.0000   0.9970   1
1282.112   0.0000   0.0000   0.9970   1
1282.172   0.0000   0.0000   0.9970   1
1282.232   0.0000   0.0000   0.9970   1
1282.291   0.0000   0.0000   0.9970   1
1282.351   0.0000   0.0000   0.9970   1
1282.411   0.0000   0.0000   0.9970   1
1282.471   0.0000   0.0000   0.9970   1
1282.531   0.0000   0.0000   0.9970   1
1282.590   0.0000   0.0000   0.9970   1
1282.650   0.0000   0.0000   0.9970   1
1282.710   0.0000   0.0000   0.9970   1
1282.770   0.0000   0.0000   0.9970   1
1282.830   0.0000   0.0000   0.9970   1
1282.890   0.0000   0.0000   0.9970   1
1282.949   0.0000   0.0000   0.9970   1
1283.009   0.0000   0.0000   0.9970   1
1283.069   0.0000   0.0000   0.9971   1
1283.129   0.0000   0.0000   0.9971   1
1283.189   0.0000   0.0000   0.9971   1
1283.249   0.0000   0.0000   0.9971   1
1283.308   0.0000   0.0000   0.9971   1
1283.368   0.0000   0.0000   0.9971   1
1283.428   0.0000   0.0000   0.9971   1
1283.488   0.0000   0.0000   0.9971   1
1283.548   0.0000   0.0000   0.9971   1
1283.607   0.0000   0.0000   0.9971   1
1283.667   0.0000   0.0000   0.9971   1
1283.727   0.0000   0.0000   0.9971   1
1283.787   0.0000   0.0000   0.9971   1
1283.847   0.0000   0.0000   0.9971   1
1283.906   0.0000   0.0000   0.9971   1
1283.966   0.0000   0.0000   0.9971   1
1284.026   0.0000   0.0000   0.9971   1
1284.086   0.0000   0.0000   0.9971   1
1284.146   0.0000   0.0000   0.9971   1
1284.206   0.0000   0.0000   0.9972   1
1284.266   0.0000   0.0000   0.9972   1
1284.325   0.0000   0.0000   0.9972   1
1284.385   0.0000   0.0000   0.9972   1
1284.445   0.0000   0.0000   0.9972   1
1284.505   0.0000   0.0000   0.9972   1
1284.565   0.0000   0.0000   0.9972   1
1284.624   0.0000   0.0000   0.9972   1
1284.684   0.0000   0.0000   0.9972   1
1284.744   0.0000   0.0000   0.9972   1
1284.804   0.0000   0.0000   0.9972   1
1284.864   0.0000   0.0000   0.9972   1
1284.923   0.0000   0.0000   0.9972   1
1284.983   0.0000   0.0000   0.9972   1
1285.043   0.0000   0.0000   0.9972   1
1285.103   0.0000   0.0000   0.9972   1
1285.163   0.0000   0.0000   0.9972   1
1285.223   0.0000   0.0000   0.9972   1
1285.282   0.0000   0.0000   0.9972   1
1285.342   0.0000   0.0000   0.9972   1
1285.402   0.0000   0.0000   0.9972   1
1285.462   0.0000   0.0000   0.9973   1
1285.522   0.0000   0.0000   0.9973   1
1285.582   0.0000   0.0000   0.9973   1
1285.641   0.0000   0.0000   0.9973   1
1285.701   0.0000   0.0000   0.9973   1
1285.761   0.0000   0.0000   0.9973   1
1285.821   0.0000   0.0000   0.9973   1
1285.881   0.0000   0.0000   0.9973   1
1285.940   0.0000   0.0000   0.9973   1
1286.000   0.0000   0.0000   0.9973   1
1286.060   0.0000   0.0000   0.9973   1
1286.120   0.0000   0.0000   0.9973   1
1286.180   0.0000   0.0000   0.9973   1
1286.240   0.0000   0.0000   0.9973   1
1286.299   0.0000   0.0000   0.9973   1
1286.359   0.0000   0.0000   0.9973   1
1286.419   0.0000   0.0000   0.9973   1
1286.479   0.0000   0.0000   0.9973   1
1286.539   0.0000   0.0000   0.9973   1
1286.598   0.0000   0.0000   0.9973   1
1286.658   0.0000   0.0000   0.9973   1
1286.718   0.0000   0.0000   0.9974   1
1286.778   0.0000   0.0000   0.9974   1
1286.838   0.0000   0.0000   0.9974   1
1286.898   0.0000   0.0000   0.9974   1
1286.957   0.0000   0.0000   0.9974   1
1287.017   0.0000   0.0000   0.9974   1
1287.077   0.0000   0.0000   0.9974   1
1287.137   0.0000   0.0000   0.9974   1
1287.197   0.0000   0.0000   0.9974   1
1287.256   0.0000   0.0000   0.9974   1
1287.316   0.0000   0.0000   0.9974   1
1287.376   0.0000   0.0000   0.9974   1
1287.436   0.0000   0.0000   0.9974   1
1287.496   0.3430   0.1128   0.9974   1
1287.556   0.4631   0.1334   0.9974   1
1287.615   0.5321   0.1394   0.9974   1
1287.675   0.4808   0.1353   0.9974   1
1287.735   0.4803   0.1354   0.9974   1
1287.795   0.4631   0.1337   0.9974   1
1287.855   0.4633   0.1329   0.9974   1
1287.914   0.8538   0.2344   0.9974   1
1287.974   1.0994   0.2826   0.9974   1
1288.034   0.8579   0.2612   0.9974   1
1288.094   0.8927   0.2645   0.9975   1
1288.154   0.7217   0.2464   0.9975   1
1288.214   1.0329   0.2755   0.9975   1
1288.273   0.8264   0.2591   0.9975   1
1288.333   0.8277   0.2579   0.9975   1
1288.393   0.8979   0.2644   0.9975   1
1288.453   0.6909   0.2455   0.9975   1
1288.513   1.0019   0.2747   0.9975   1
1288.573   1.1413   0.2868   0.9975   1
1288.632   0.9338   0.2688   0.9975   1
1288.692   0.7606   0.2527   0.9975   1
1288.752   0.7278   0.2491   0.9975   1
1288.812   0.6932   0.2453   0.9975   1
1288.872   0.7280   0.2486   0.9975   1
1288.931   0.7629   0.2516   0.9975   1
1288.991   0.8333   0.2601   0.9975   1
1289.051   0.8686   0.2636   0.9975   1
1289.111   0.6952   0.2466   0.9975   1
1289.171   0.6951   0.2442   0.9975   1
1289.230   0.8338   0.2594   0.9975   1
1289.290   0.6968   0.2465   0.9975   1
1289.350   0.5921   0.2328   0.9975   1
1289.410   0.7313   0.2503   0.9975   1
1289.470   0.8706   0.2641   0.9975   1
1289.530   0.9056   0.2660   0.9975   1
1289.589   0.9409   0.2693   0.9976   1
1289.649   0.6258   0.2377   0.9976   1
1289.709   0.7659   0.2534   0.9976   1
1289.769   1.0458   0.2792   0.9976   1
1289.829   0.9060   0.2675   0.9976   1
1289.889   0.8715   0.2630   0.9976   1
1289.948   0.8363   0.2604   0.9976   1
1290.008   0.8364   0.2598   0.9976   1
1290.068   0.8725   0.2629   0.9976   1
1290.128   0.8725   0.2634   0.9976   1
1290.188   0.4536   0.1953   0.9976   1
1290.247   0.0000   0.0000   0.9976   1
1290.307   0.1397   0.1067   0.9976   1
1290.367   1.1176   0.2849   0.9976   1
1290.427   1.1873   0.2904   0.9976   1
1290.487   0.7319   0.2493   0.9976   1
1290.547   0.8390   0.2605   0.9976   1
1290.606   1.0152   0.2763   0.9976   1
1290.666   0.9432   0.2709   0.9976   1
1290.726   0.8336   0.2189   0.9976   1
1290.786   0.8487   0.1841   0.9976   1
1290.846   0.7795   0.1799   0.9976   1
1290.906   1.0058   0.1940   0.9976   1
1290.965   0.9907   0.1932   0.9976   1
1291.025   0.9903   0.1932   0.9976   1
1291.085   0.9029   0.1881   0.9976   1
1291.145   0.9382   0.1904   0.9977   1
1291.205   1.1646   0.2039   0.9977   1
1291.264   1.3402   0.2139   0.9977   1
1291.324   1.0608   0.1978   0.9977   1
1291.384   0.7994   0.1816   0.9977   1
1291.444   0.8331   0.1830   0.9977   1
1291.504   0.9380   0.1904   0.9977   1
1291.563   0.7822   0.1801   0.9977   1
1291.623   0.8888   0.1867   0.9977   1
1291.683   1.1855   0.2053   0.9977   1
1291.743   1.1503   0.2034   0.9977   1
1291.803   1.2013   0.2065   0.9977   1
1291.863   0.9747   0.1929   0.9977   1
1291.922   0.7130   0.1746   0.9977   1
1291.982   0.8174   0.1825   0.9977   1
1292.042   0.8179   0.1822   0.9977   1
1292.102   0.9582   0.1908   0.9977   1
1292.162   0.8885   0.1865   0.9977   1
1292.222   1.0110   0.1941   0.9977   1
1292.281   0.8186   0.1819   0.9977   1
1292.341   0.7832   0.1792   0.9977   1
1292.401   0.9223   0.1890   0.9977   1
1292.461   0.7971   0.1545   0.9977   1
1292.521   0.8886   0.1523   0.9977   1
1292.580   0.9010   0.1529   0.9977   1
1292.640   1.0753   0.1617   0.9977   1
1292.700   1.1336   0.1650   0.9977   1
1292.760   0.9839   0.1572   0.9978   1
1292.820   1.0427   0.1605   0.9978   1
1292.880   0.9618   0.1566   0.9978   1
1292.939   1.1588   0.1660   0.9978   1
1292.999   1.0427   0.1601   0.9978   1
1293.059   0.8558   0.1503   0.9978   1
1293.119   1.1571   0.1659   0.9978   1
1293.179   1.3542   0.1751   0.9978   1
1293.238   0.9008   0.1529   0.9978   1
1293.298   0.9134   0.1534   0.9978   1
1293.358   0.8917   0.1528   0.9978   1
1293.418   0.8747   0.1696   0.9978   1
1293.478   0.8519   0.1847   0.9978   1
1293.538   0.7301   0.1759   0.9978   1
1293.597   0.8223   0.1492   0.9978   1
1293.657   0.6131   0.1365   0.9978   1
1293.717   0.7299   0.1435   0.9978   1
1293.777   0.8347   0.1493   0.9978   1
1293.837   0.5315   0.1314   0.9978   1
1293.896   0.8216   0.1489   0.9978   1
1293.956   0.6474   0.1386   0.9978   1
1294.016   0.7871   0.1470   0.9978   1
1294.076   0.7986   0.1468   0.9978   1
1294.136   0.7881   0.1469   0.9978   1
1294.196   0.6962   0.1410   0.9978   1
1294.255   0.7783   0.1468   0.9978   1
1294.315   0.7544   0.1456   0.9978   1
1294.375   0.7429   0.1446   0.9978   1
1294.435   0.8236   0.1493   0.9978   1
1294.495   0.9288   0.1547   0.9978   1
1294.554   0.7071   0.1422   0.9979   1
1294.614   0.9054   0.1535   0.9979   1
1294.674   0.8942   0.1532   0.9979   1
1294.734   0.9525   0.1559   0.9979   1
1294.794   0.9186   0.1538   0.9979   1
1294.854   0.9898   0.1581   0.9979   1
1294.913   0.9781   0.1574   0.9979   1
1294.973   1.0133   0.1591   0.9979   1
1295.033   0.8395   0.1500   0.9979   1
1295.093   0.9334   0.1554   0.9979   1
1295.153   0.8363   0.1735   0.9979   1
1295.213   0.9846   0.1940   0.9979   1
1295.272   0.8197   0.1734   0.9979   1
1295.332   0.8809   0.1543   0.9979   1
1295.392   0.8109   0.1529   0.9979   1
1295.452   0.7592   0.1496   0.9979   1
1295.512   0.7996   0.1514   0.9979   1
1295.571   0.8621   0.1553   0.9979   1
1295.631   0.7459   0.1500   0.9979   1
1295.691   0.7893   0.1517   0.9979   1
1295.751   0.8366   0.1526   0.9979   1
1295.811   0.7612   0.1265   0.9979   1
1295.870   0.7170   0.1240   0.9979   1
1295.930   0.7515   0.1258   0.9979   1
1295.990   0.8482   0.1307   0.9979   1
1296.050   0.8752   0.1320   0.9979   1
1296.110   0.6990   0.1229   0.9979   1
1296.170   0.9361   0.1349   0.9979   1
1296.229   0.7692   0.1268   0.9979   1
1296.289   0.7339   0.1247   0.9979   1
1296.349   0.5317   0.1141   0.9979   1
1296.409   0.6814   0.1222   0.9979   1
1296.469   0.9018   0.1331   0.9980   1
1296.529   0.7079   0.1238   0.9980   1
1296.588   0.5584   0.1156   0.9980   1
1296.648   0.6727   0.1217   0.9980   1
1296.708   0.6382   0.1203   0.9980   1
1296.768   0.6733   0.1219   0.9980   1
