# Best-fit normalized data and profile from VoigtFit
# column 1 : Wavelength
# column 2 : Normalized flux
# column 3 : Normalized error
# column 4 : Best-fit profile
# column 5 : Pixel mask, 1=included, 0=excluded
1134.577   0.2344   1.0853   0.9970   1
1134.637   0.7128   1.1726   0.9970   1
1134.697   0.7116   1.1769   0.9970   1
1134.756   0.2368   1.0808   0.9970   1
1134.816   0.0000   1.0290   0.9970   1
1134.876   0.7070   1.1715   0.9970   1
1134.936   0.0004   1.0262   0.9970   1
1134.996   0.0000   1.0248   0.9970   1
1135.056   0.2332   1.0728   0.9970   1
1135.115   0.3528   0.9094   0.9970   0
1135.175   0.2380   0.7581   0.9970   0
1135.235   0.2540   0.7627   0.9970   0
1135.295   0.6616   0.8232   0.9969   0
1135.355   0.5497   0.8164   0.9969   0
1135.414   0.1314   0.7495   0.9969   0
1135.474   0.7958   0.8401   0.9969   0
1135.534   0.3897   0.7845   0.9969   0
1135.594   0.2607   0.7643   0.9969   0
1135.654   0.3854   0.7793   0.9969   0
1135.714   0.1161   0.7342   0.9969   0
1135.773   0.1061   0.7298   0.9969   0
1135.833   0.1060   0.7289   0.9969   0
1135.893   -0.0105   0.7104   0.9969   0
1135.953   0.1051   0.7269   0.9969   0
1136.013   -0.0107   0.7086   0.9969   0
1136.073   -0.0107   0.7077   0.9969   0
1136.132   -0.0107   0.7068   0.9969   0
1136.192   -0.0107   0.7059   0.9969   0
1136.252   -0.0130   0.7050   0.9969   0
1136.312   -0.0089   0.7041   0.9969   0
1136.372   0.1064   0.7205   0.9969   0
1136.431   0.1062   0.7193   0.9969   0
1136.491   0.2209   0.7352   0.9969   0
1136.551   0.2217   0.7345   0.9969   0
1136.611   -0.0054   0.6997   0.9968   0
1136.671   0.2237   0.7327   0.9968   0
1136.730   -0.0024   0.6979   0.9968   0
1136.790   -0.0025   0.6974   0.9968   0
1136.850   0.2375   0.7350   0.9968   0
1136.910   0.1147   0.7141   0.9968   0
1136.970   0.2296   0.7287   0.9968   0
1137.030   0.3303   0.7409   0.9968   0
1137.089   0.4381   0.7571   0.9968   0
1137.149   0.4362   0.7542   0.9968   0
1137.209   0.4349   0.7549   0.9968   0
1137.269   0.6542   0.7796   0.9968   0
1137.329   0.8774   0.8089   0.9968   0
1137.389   0.8749   0.8077   0.9968   0
1137.448   0.2104   0.7201   0.9968   0
1137.508   0.4377   0.6333   0.9968   0
1137.568   1.1902   0.6888   0.9968   0
1137.628   0.5172   0.6211   0.9968   0
1137.688   0.6810   0.6402   0.9968   0
1137.747   0.7514   0.6459   0.9968   0
1137.807   0.9734   0.6656   0.9967   0
1137.867   0.6604   0.6331   0.9967   0
1137.927   0.6618   0.6345   0.9967   0
1137.987   0.9109   0.6623   0.9967   0
1138.047   0.7887   0.6545   0.9967   0
1138.106   0.6423   0.6391   0.9967   0
1138.166   0.3981   0.6120   0.9967   0
1138.226   0.7061   0.6411   0.9967   0
1138.286   0.4672   0.6149   0.9967   0
1138.346   0.4716   0.6134   0.9967   0
1138.405   0.3791   0.6009   0.9967   0
1138.465   0.5182   0.6131   0.9967   0
1138.525   0.6807   0.6293   0.9967   0
1138.585   0.6160   0.6226   0.9967   0
1138.645   0.4461   0.6003   0.9967   0
1138.705   0.4359   0.5986   0.9967   0
1138.764   0.4257   0.5964   0.9967   0
1138.824   0.2790   0.5801   0.9967   0
1138.884   0.9210   0.6452   0.9967   0
1138.944   0.5572   0.6104   0.9967   0
1139.004   0.4853   0.6020   0.9966   0
1139.063   0.8409   0.6362   0.9966   0
1139.123   0.6249   0.6139   0.9966   0
1139.183   0.4141   0.5931   0.9966   0
1139.243   0.5597   0.6071   0.9966   0
1139.303   0.9424   0.6462   0.9966   0
1139.363   0.5103   0.6012   0.9966   0
1139.422   0.3630   0.5871   0.9966   0
1139.482   0.8811   0.6400   0.9966   0
1139.542   0.5149   0.6021   0.9966   0
1139.602   1.0316   0.6570   0.9966   0
1139.662   0.5024   0.5982   0.9966   0
1139.721   0.7034   0.6189   0.9966   0
1139.781   0.5505   0.6010   0.9966   0
1139.841   0.2699   0.5697   0.9966   0
1139.901   0.5470   0.5993   0.9966   0
1139.961   0.6188   0.6054   0.9966   0
1140.021   0.8269   0.6260   0.9966   0
1140.080   0.6891   0.6112   0.9966   0
1140.140   0.7551   0.6159   0.9965   0
1140.200   0.6146   0.6045   0.9965   0
1140.260   0.6136   0.6039   0.9965   0
1140.320   0.6960   0.5828   0.9965   0
1140.380   0.4375   0.5080   0.9965   0
1140.439   0.7873   0.5431   0.9965   0
1140.499   0.7434   0.5416   0.9965   0
1140.559   0.6170   0.5290   0.9965   0
1140.619   0.4908   0.5139   0.9965   0
1140.679   0.7103   0.5344   0.9965   0
1140.738   0.6007   0.5250   0.9965   0
1140.798   0.5341   0.5148   0.9965   0
1140.858   0.5573   0.5099   0.9965   0
1140.918   0.7182   0.5270   0.9965   0
1140.978   0.7698   0.5306   0.9965   0
1141.037   0.7690   0.5279   0.9965   0
1141.097   0.4081   0.4962   0.9965   0
1141.157   0.2009   0.4756   0.9965   0
1141.217   0.5224   0.5058   0.9964   0
1141.277   0.4768   0.5043   0.9964   0
1141.337   0.3139   0.4883   0.9964   0
1141.396   0.4670   0.5014   0.9964   0
1141.456   0.4560   0.4982   0.9964   0
1141.516   0.9614   0.5410   0.9964   0
1141.576   0.4026   0.4929   0.9964   0
1141.636   0.3500   0.4872   0.9964   0
1141.696   1.0592   0.5482   0.9964   0
1141.755   0.6033   0.5092   0.9964   0
1141.815   0.6022   0.5101   0.9964   0
1141.875   0.2999   0.4808   0.9964   0
1141.935   0.5129   0.5019   0.9964   0
1141.995   0.6288   0.5129   0.9964   0
1142.054   0.6834   0.5174   0.9964   0
1142.114   0.8419   0.5317   0.9964   0
1142.174   0.4098   0.4906   0.9964   0
1142.234   0.5584   0.5032   0.9964   0
1142.294   0.4010   0.4883   0.9963   0
1142.354   0.7965   0.5222   0.9963   0
1142.413   0.9433   0.5348   0.9963   0
1142.473   0.6937   0.5113   0.9963   0
1142.533   0.6438   0.5081   0.9963   0
1142.593   0.6922   0.5120   0.9963   0
1142.653   0.5943   0.5017   0.9963   0
1142.713   0.7459   0.5166   0.9963   0
1142.772   0.9000   0.5288   0.9963   0
1142.832   0.3536   0.4803   0.9963   0
1142.892   0.7579   0.5162   0.9963   0
1142.952   0.5986   0.5022   0.9963   0
1143.012   0.4440   0.4872   0.9963   0
1143.071   0.4905   0.4893   0.9963   0
1143.131   0.3421   0.4757   0.9963   0
1143.191   0.3993   0.4819   0.9963   0
1143.251   0.2511   0.4695   0.9962   0
1143.311   0.6719   0.4748   0.9962   0
1143.370   0.6827   0.5143   0.9962   0
1143.430   0.5683   0.5017   0.9962   0
1143.490   0.6657   0.5089   0.9962   0
1143.550   0.7301   0.5144   0.9962   0
1143.610   0.5886   0.5013   0.9962   0
1143.670   0.4282   0.4857   0.9962   0
1143.729   1.1239   0.5486   0.9962   0
1143.789   0.5767   0.4994   0.9962   0
1143.849   0.8241   0.5205   0.9962   0
1143.909   0.5066   0.4907   0.9962   0
1143.969   0.5045   0.4879   0.9962   0
1144.029   0.7075   0.5052   0.9962   0
1144.088   0.6485   0.5002   0.9962   0
1144.148   0.8156   0.5100   0.9962   0
1144.208   0.5281   0.4853   0.9961   0
1144.268   0.6237   0.4944   0.9961   0
1144.328   0.4839   0.4816   0.9961   0
1144.387   0.4880   0.4823   0.9961   0
1144.447   0.5968   0.4938   0.9961   0
1144.507   0.5476   0.4889   0.9961   0
1144.567   0.1973   0.4545   0.9961   0
1144.627   0.4868   0.4806   0.9961   0
1144.687   0.2402   0.4566   0.9961   0
1144.746   0.2908   0.4625   0.9961   0
1144.806   0.1453   0.4478   0.9961   0
1144.866   -0.0020   0.4315   0.9961   0
1144.926   0.0470   0.4362   0.9961   0
1144.986   0.3834   0.4696   0.9961   0
1145.045   0.1889   0.4496   0.9961   0
1145.105   0.1888   0.4486   0.9961   0
1145.165   0.2357   0.4531   0.9960   0
1145.225   0.3801   0.4670   0.9960   0
1145.285   0.3325   0.4615   0.9960   0
1145.345   0.3801   0.4670   0.9960   0
1145.404   0.6640   0.4924   0.9960   0
1145.464   0.3775   0.4654   0.9960   0
1145.524   0.6658   0.4909   0.9960   0
1145.584   0.3323   0.4612   0.9960   0
1145.644   0.3336   0.4612   0.9960   0
1145.703   0.8193   0.5042   0.9960   0
1145.763   0.5758   0.4828   0.9960   0
1145.823   0.3309   0.4595   0.9960   0
1145.883   0.6122   0.4830   0.9960   0
1145.943   0.7526   0.4956   0.9960   0
1146.003   0.6569   0.4886   0.9960   0
1146.062   0.5617   0.4794   0.9959   0
1146.122   0.4190   0.4660   0.9959   0
1146.182   0.7014   0.4894   0.9959   0
1146.242   0.4183   0.4655   0.9959   0
1146.302   0.6513   0.4850   0.9959   0
1146.361   0.5145   0.4733   0.9959   0
1146.421   0.5881   0.4839   0.9959   0
1146.481   0.1498   0.4419   0.9959   0
1146.541   0.2581   0.4535   0.9959   0
1146.601   0.2015   0.4466   0.9959   0
1146.661   0.1482   0.4406   0.9959   0
1146.720   0.0431   0.4285   0.9959   0
1146.780   0.1426   0.4389   0.9959   0
1146.840   -0.0065   0.4216   0.9959   0
1146.900   0.0384   0.4252   0.9958   0
1146.960   0.1779   0.4392   0.9958   0
1147.020   0.2240   0.4431   0.9958   0
1147.079   0.3183   0.4524   0.9958   0
1147.139   0.5051   0.4682   0.9958   0
1147.199   0.6485   0.4828   0.9958   0
1147.259   0.5649   0.4739   0.9958   0
1147.319   0.8182   0.4977   0.9958   0
1147.378   0.9182   0.5051   0.9958   0
1147.438   1.0972   0.5195   0.9958   0
1147.498   0.7036   0.4861   0.9958   0
1147.558   0.6953   0.4829   0.9958   0
1147.618   0.6446   0.4802   0.9958   0
1147.677   0.6434   0.4785   0.9958   0
1147.737   0.5973   0.4748   0.9957   0
1147.797   0.5043   0.4656   0.9957   0
1147.857   0.6434   0.4781   0.9957   0
1147.917   0.5063   0.4647   0.9957   0
1147.977   0.8307   0.4940   0.9957   0
1148.036   0.5516   0.4669   0.9957   0
1148.096   0.7818   0.4894   0.9957   0
1148.156   0.5493   0.4662   0.9957   0
1148.216   0.6869   0.4792   0.9957   0
1148.276   1.0087   0.5040   0.9957   0
1148.336   0.5957   0.4717   0.9957   0
1148.395   0.7792   0.4857   0.9957   0
1148.455   0.7317   0.4829   0.9957   0
1148.515   0.7778   0.4847   0.9956   0
1148.575   0.7762   0.4855   0.9956   0
1148.635   0.6850   0.4778   0.9956   0
1148.694   0.6389   0.4735   0.9956   0
1148.754   0.6943   0.4788   0.9956   0
1148.814   0.6678   0.4783   0.9956   0
1148.874   0.8195   0.4927   0.9956   0
1148.934   0.9181   0.5005   0.9956   0
1148.994   0.7240   0.4832   0.9956   0
1149.053   0.7696   0.4878   0.9956   0
1149.113   0.7700   0.4862   0.9956   0
1149.173   0.7216   0.4821   0.9956   0
1149.233   0.6083   0.4694   0.9956   0
1149.293   0.9116   0.4909   0.9955   0
1149.353   0.7264   0.4767   0.9955   0
1149.412   0.4988   0.4574   0.9955   0
1149.472   0.6799   0.4716   0.9955   0
1149.532   0.6798   0.4719   0.9955   0
1149.592   0.7248   0.4762   0.9955   0
1149.652   0.9979   0.4968   0.9955   0
1149.711   0.9069   0.4904   0.9955   0
1149.771   0.8156   0.4813   0.9955   0
1149.831   0.5868   0.4610   0.9955   0
1149.891   0.7677   0.4780   0.9955   0
1149.951   0.7216   0.4734   0.9955   0
1150.010   0.7208   0.4716   0.9954   0
1150.070   0.8098   0.4789   0.9954   0
1150.130   0.6749   0.4683   0.9954   0
1150.190   0.3126   0.4337   0.9954   0
1150.250   0.7638   0.4749   0.9954   0
1150.310   0.4937   0.4511   0.9954   0
1150.369   0.7648   0.4742   0.9954   0
1150.429   0.4492   0.4464   0.9954   0
1150.489   0.7642   0.4729   0.9954   0
1150.549   0.8979   0.4846   0.9954   0
1150.609   0.6714   0.4638   0.9954   0
1150.669   0.4025   0.4405   0.9954   0
1150.728   0.5362   0.4518   0.9953   0
1150.788   0.5364   0.4514   0.9953   0
1150.848   0.9855   0.4897   0.9953   0
1150.908   1.1646   0.5017   0.9953   0
1150.968   0.5796   0.4552   0.9953   0
1151.027   0.6233   0.4584   0.9953   0
1151.087   0.5783   0.4555   0.9953   0
1151.147   0.6238   0.4572   0.9953   0
1151.207   0.4891   0.4444   0.9953   0
1151.267   0.3981   0.4373   0.9953   0
1151.327   0.5311   0.4491   0.9953   0
1151.386   0.6210   0.4546   0.9953   0
1151.446   0.2628   0.4231   0.9952   0
1151.506   0.7074   0.4624   0.9952   0
1151.566   0.3937   0.4343   0.9952   0
1151.626   0.8226   0.4742   0.9952   0
1151.685   0.6923   0.4608   0.9952   0
1151.745   0.7936   0.4739   0.9952   0
1151.805   0.8852   0.4818   0.9952   0
1151.865   0.8842   0.4814   0.9952   0
1151.925   0.8822   0.4792   0.9952   0
1151.985   0.6460   0.4582   0.9952   0
1152.044   0.8035   0.4740   0.9952   0
1152.104   0.9348   0.4838   0.9951   0
1152.164   0.3207   0.4279   0.9951   0
1152.224   0.3652   0.4319   0.9951   0
1152.284   0.6892   0.4616   0.9951   0
1152.344   0.6384   0.4553   0.9951   0
1152.403   0.5965   0.4523   0.9951   0
1152.463   0.3159   0.4252   0.9951   0
1152.523   0.3901   0.4292   0.9951   0
1152.583   0.7405   0.4593   0.9951   0
1152.643   0.3464   0.4239   0.9951   0
1152.702   0.4335   0.4309   0.9951   0
1152.762   0.1276   0.4020   0.9950   0
1152.822   0.6064   0.4468   0.9950   0
1152.882   0.4323   0.4311   0.9950   0
1152.942   0.5183   0.4371   0.9950   0
1153.001   0.7355   0.4575   0.9950   0
1153.061   0.7770   0.4590   0.9950   0
1153.121   1.0789   0.4836   0.9950   0
1153.181   0.4287   0.4285   0.9950   0
1153.241   0.7747   0.4589   0.9950   0
1153.301   0.4709   0.4324   0.9950   0
1153.360   0.5562   0.4384   0.9950   0
1153.420   0.7298   0.4535   0.9949   0
1153.480   0.6860   0.4492   0.9949   0
1153.540   0.5562   0.4372   0.9949   0
1153.600   0.8578   0.4634   0.9949   0
1153.660   0.5557   0.4377   0.9949   0
1153.719   0.8559   0.4636   0.9949   0
1153.779   0.4674   0.4296   0.9949   0
1153.839   0.2507   0.4082   0.9949   0
1153.899   0.5523   0.4352   0.9949   0
1153.959   0.3380   0.4156   0.9949   0
1154.018   0.7254   0.4483   0.9948   0
1154.078   0.7248   0.4490   0.9948   0
1154.138   0.3825   0.4199   0.9948   0
1154.198   0.5961   0.4378   0.9948   0
1154.258   0.6377   0.4422   0.9948   0
1154.318   0.7232   0.4481   0.9948   0
1154.377   0.5929   0.4366   0.9948   0
1154.437   0.2949   0.4097   0.9948   0
1154.497   0.4642   0.4230   0.9948   0
1154.557   0.3781   0.4167   0.9948   0
1154.617   0.2077   0.4002   0.9947   0
1154.677   0.3772   0.4165   0.9947   0
1154.736   0.2507   0.4032   0.9947   0
1154.796   0.4308   0.4210   0.9947   0
1154.856   0.4850   0.4276   0.9947   0
1154.916   0.4934   0.4301   0.9947   0
1154.976   0.5761   0.4359   0.9947   0
1155.035   0.5716   0.4350   0.9947   0
1155.095   0.3504   0.4123   0.9947   0
1155.155   0.3965   0.4177   0.9947   0
1155.215   0.6998   0.4456   0.9946   0
1155.275   0.7164   0.4397   0.9946   0
1155.334   0.4601   0.4204   0.9946   0
1155.394   0.4164   0.4164   0.9946   0
1155.454   0.4586   0.4186   0.9946   0
1155.514   0.6683   0.4383   0.9946   0
1155.574   0.1637   0.3906   0.9946   0
1155.634   0.6640   0.4354   0.9946   0
1155.693   0.2029   0.3942   0.9946   0
1155.753   0.4523   0.4160   0.9945   0
1155.813   0.4528   0.4173   0.9945   0
1155.873   0.6593   0.4343   0.9945   0
1155.933   1.0333   0.4641   0.9945   0
1155.993   0.9065   0.4552   0.9945   0
1156.052   0.4910   0.4191   0.9945   0
1156.112   0.8236   0.4477   0.9945   0
1156.172   0.3239   0.4040   0.9945   0
1156.232   0.5301   0.4220   0.9945   0
1156.292   0.2812   0.3984   0.9945   0
1156.351   0.6948   0.4355   0.9944   0
1156.411   0.9841   0.4589   0.9944   0
1156.471   0.6532   0.4321   0.9944   0
1156.531   0.4450   0.4137   0.9944   0
1156.591   0.7351   0.4366   0.9944   0
1156.651   0.8585   0.4482   0.9944   0
1156.710   0.5706   0.4236   0.9944   0
1156.770   0.3634   0.4043   0.9944   0
1156.830   0.6504   0.4308   0.9944   0
1156.890   0.7322   0.4373   0.9943   0
1156.950   0.4042   0.4076   0.9943   0
1157.009   0.6080   0.4254   0.9943   0
1157.069   0.3207   0.3999   0.9943   0
1157.129   0.7346   0.4350   0.9943   0
1157.189   0.9603   0.4558   0.9943   0
1157.249   0.5983   0.4266   0.9943   0
1157.309   0.8179   0.4479   0.9943   0
1157.368   0.5497   0.4231   0.9942   0
1157.428   0.8043   0.4437   0.9942   0
1157.488   0.3777   0.4063   0.9942   0
1157.548   0.9765   0.4584   0.9942   0
1157.608   0.6721   0.4318   0.9942   0
1157.667   0.6441   0.4266   0.9942   0
1157.727   0.8886   0.4462   0.9942   0
1157.787   0.6856   0.4292   0.9942   0
1157.847   0.6854   0.4286   0.9942   0
1157.907   0.4820   0.4111   0.9941   0
1157.967   0.4420   0.4081   0.9941   0
1158.026   0.3196   0.3962   0.9941   0
1158.086   0.4409   0.4075   0.9941   0
1158.146   0.5218   0.4149   0.9941   0
1158.206   0.3609   0.3996   0.9941   0
1158.266   0.5632   0.4174   0.9941   0
1158.325   0.6557   0.4670   0.9941   0
1158.385   0.4796   0.4736   0.9940   0
1158.445   0.4789   0.4733   0.9940   0
1158.505   0.2618   0.4501   0.9940   0
1158.565   0.6926   0.4920   0.9940   0
1158.625   0.4249   0.4669   0.9940   0
1158.684   0.6785   0.4592   0.9940   0
1158.744   0.7582   0.4297   0.9940   0
1158.804   0.4354   0.4044   0.9940   0
1158.864   0.7147   0.4277   0.9939   0
1158.924   0.5128   0.4108   0.9939   0
1158.984   0.5524   0.4138   0.9939   0
1159.043   0.6727   0.4244   0.9939   0
1159.103   0.2708   0.3884   0.9939   0
1159.163   0.5923   0.4161   0.9939   0
1159.223   0.6730   0.4235   0.9939   0
1159.283   0.6731   0.4242   0.9939   0
1159.342   0.5521   0.4116   0.9938   0
1159.402   0.6720   0.4245   0.9938   0
1159.462   0.3531   0.3948   0.9938   0
1159.522   0.5147   0.4091   0.9938   0
1159.582   0.3543   0.3942   0.9938   0
1159.641   0.8346   0.4365   0.9938   0
1159.701   0.3548   0.3950   0.9938   0
1159.761   0.5147   0.4086   0.9938   0
1159.821   0.6742   0.4224   0.9937   0
1159.881   0.4755   0.4037   0.9937   0
1159.941   0.5942   0.4143   0.9937   0
1160.000   0.3593   0.3939   0.9937   0
1160.060   0.5757   0.4163   0.9937   0
1160.120   0.6229   0.4206   0.9937   0
1160.180   0.6692   0.4265   0.9937   0
1160.240   0.5769   0.4175   0.9936   0
1160.300   0.7011   0.4265   0.9936   0
1160.359   0.5822   0.4170   0.9936   0
1160.419   0.9124   0.4443   0.9936   0
1160.479   0.5766   0.4142   0.9936   0
1160.539   0.5789   0.4151   0.9936   0
1160.599   0.5404   0.4111   0.9936   0
1160.658   0.4513   0.4035   0.9936   0
1160.718   0.6625   0.4216   0.9935   0
1160.778   0.6233   0.4186   0.9935   0
1160.838   0.7053   0.4267   0.9935   0
1160.898   0.4924   0.4061   0.9935   0
1160.958   0.5246   0.4080   0.9935   0
1161.017   0.6327   0.4157   0.9935   0
1161.077   0.8918   0.4968   0.9935   0
1161.137   0.4716   0.4632   0.9934   0
1161.197   0.5228   0.4664   0.9934   0
1161.257   0.5218   0.4680   0.9934   0
1161.317   0.6271   0.4791   0.9934   0
1161.376   0.4156   0.4565   0.9934   0
1161.436   0.6780   0.4407   0.9934   0
1161.496   0.7025   0.4195   0.9934   0
1161.556   0.7430   0.4242   0.9933   0
1161.616   0.6674   0.3855   0.9933   0
1161.675   0.7029   0.4189   0.9933   0
1161.735   0.5843   0.4099   0.9933   0
1161.795   0.6244   0.4134   0.9933   0
1161.855   0.7037   0.4198   0.9933   0
1161.915   0.3498   0.3879   0.9933   0
1161.974   0.5857   0.4080   0.9932   0
1162.034   0.4681   0.3995   0.9932   0
1162.094   0.7417   0.4213   0.9932   0
1162.154   0.7031   0.4191   0.9932   0
1162.214   0.4668   0.3989   0.9932   0
1162.274   0.5845   0.4089   0.9932   0
1162.333   0.7409   0.4218   0.9931   0
1162.393   0.7412   0.4215   0.9931   0
1162.453   0.6235   0.4110   0.9931   0
1162.513   0.6620   0.4147   0.9931   0
1162.573   0.5827   0.4066   0.9931   0
1162.633   0.8187   0.4269   0.9931   0
1162.692   0.2707   0.3794   0.9931   0
1162.752   0.7358   0.4188   0.9930   0
1162.812   0.5021   0.4006   0.9930   0
1162.872   0.6955   0.4166   0.9930   0
1162.932   0.6183   0.4109   0.9930   0
1162.991   0.3449   0.3860   0.9930   0
1163.051   0.5385   0.4029   0.9930   0
1163.111   0.5772   0.4038   0.9929   0
1163.171   0.7718   0.4225   0.9929   0
1163.231   0.6393   0.4131   0.9929   0
1163.291   0.5240   0.4049   0.9929   0
1163.350   0.9312   0.4373   0.9929   0
1163.410   0.6059   0.4114   0.9929   0
1163.470   0.7164   0.4876   0.9929   0
1163.530   0.9413   0.5089   0.9928   0
1163.590   0.6571   0.4804   0.9928   0
1163.650   0.5932   0.4726   0.9928   0
1163.709   0.8945   0.4994   0.9928   0
1163.769   0.9263   0.5001   0.9928   0
1163.829   0.8483   0.4254   0.9928   0
1163.889   0.5776   0.4037   0.9927   0
1163.949   0.8094   0.4228   0.9927   0
1164.008   0.8476   0.4273   0.9927   0
1164.068   0.6154   0.4071   0.9927   0
1164.128   0.4591   0.3932   0.9927   0
1164.188   0.6151   0.4068   0.9927   0
1164.248   0.6541   0.4096   0.9926   0
1164.307   0.4600   0.3921   0.9926   0
1164.367   0.4216   0.3890   0.9926   0
1164.427   0.7675   0.4185   0.9926   0
1164.487   0.5355   0.3991   0.9926   0
1164.547   0.6122   0.4056   0.9926   0
1164.607   0.5351   0.3992   0.9925   0
1164.666   0.6125   0.4050   0.9925   0
1164.726   0.6138   0.4047   0.9925   0
1164.786   0.6136   0.4051   0.9925   0
1164.846   0.3823   0.3844   0.9925   0
1164.906   0.4201   0.3884   0.9924   0
1164.966   0.6872   0.4114   0.9924   0
1165.025   0.8399   0.4219   0.9924   0
1165.085   0.8783   0.4261   0.9924   0
1165.145   0.7644   0.4170   0.9924   0
1165.205   0.5695   0.4004   0.9924   0
1165.265   0.5705   0.3997   0.9923   0
1165.324   0.6842   0.4087   0.9923   0
1165.384   0.8362   0.4226   0.9923   0
1165.444   0.6830   0.4091   0.9923   0
1165.504   0.7588   0.4147   0.9923   0
1165.564   0.8339   0.4199   0.9923   0
1165.624   1.1072   0.4435   0.9922   0
1165.683   0.9993   0.4356   0.9922   0
1165.743   0.5541   0.4011   0.9922   0
1165.803   0.8715   0.4262   0.9922   0
1165.863   0.7564   0.4188   0.9922   0
1165.923   0.8794   0.4288   0.9921   0
1165.982   0.5932   0.4031   0.9921   0
1166.042   0.5071   0.3950   0.9921   0
1166.102   0.8001   0.4170   0.9921   0
1166.162   0.7923   0.4159   0.9921   0
1166.222   0.4878   0.3905   0.9921   0
1166.282   0.8030   0.4471   0.9920   0
1166.341   0.4487   0.4464   0.9920   0
1166.401   0.5482   0.4578   0.9920   0
1166.461   0.4985   0.4505   0.9920   0
1166.521   0.2971   0.4294   0.9920   0
1166.581   0.5479   0.4555   0.9919   0
1166.641   0.5729   0.4254   0.9919   0
1166.700   0.4841   0.3896   0.9919   0
1166.760   0.5216   0.3917   0.9919   0
1166.820   0.1811   0.3610   0.9919   0
1166.880   0.4835   0.3885   0.9918   0
1166.940   0.6353   0.4006   0.9918   0
1166.999   0.5587   0.3924   0.9918   0
1167.059   0.6727   0.4044   0.9918   0
1167.119   0.5206   0.3908   0.9918   0
1167.179   0.4463   0.3845   0.9917   0
1167.239   0.4467   0.3833   0.9917   0
1167.298   0.5962   0.3970   0.9917   0
1167.358   0.5976   0.3978   0.9917   0
1167.418   0.5598   0.3943   0.9917   0
1167.478   0.4844   0.3872   0.9916   0
1167.538   0.3340   0.3734   0.9916   0
1167.598   0.7841   0.4124   0.9916   0
1167.657   0.4853   0.3866   0.9916   0
1167.717   0.3342   0.3722   0.9916   0
1167.777   0.4829   0.3858   0.9915   0
1167.837   0.4466   0.3821   0.9915   0
1167.897   0.3702   0.3759   0.9915   0
1167.957   0.3324   0.3718   0.9915   0
1168.016   0.6305   0.3979   0.9915   0
1168.076   0.5558   0.3894   0.9914   0
1168.136   0.3316   0.3717   0.9914   0
1168.196   0.2184   0.3596   0.9914   0
1168.256   0.5929   0.3947   0.9914   0
1168.315   0.2571   0.3645   0.9913   0
1168.375   0.3687   0.3742   0.9913   0
1168.435   0.3696   0.3745   0.9913   0
1168.495   0.3103   0.3711   0.9913   0
1168.555   0.5846   0.3967   0.9913   0
1168.615   0.3080   0.3708   0.9912   0
1168.674   0.2718   0.3669   0.9912   0
1168.734   0.8218   0.4143   0.9912   0
1168.794   0.4242   0.3814   0.9912   0
1168.854   0.6311   0.3990   0.9912   0
1168.914   0.3142   0.3708   0.9911   0
1168.974   0.3493   0.3744   0.9911   0
1169.033   0.6247   0.3996   0.9911   0
1169.093   0.3850   0.3767   0.9911   0
1169.153   0.5016   0.3872   0.9910   0
1169.213   0.3447   0.3731   0.9910   0
1169.273   0.4191   0.3797   0.9910   0
1169.332   0.3725   0.3737   0.9910   0
1169.392   0.2915   0.3652   0.9909   0
1169.452   0.3624   0.3720   0.9909   0
1169.512   0.3998   0.3753   0.9909   0
1169.572   0.4738   0.3811   0.9909   0
1169.631   0.5101   0.3836   0.9909   0
1169.691   0.3245   0.3671   0.9908   0
1169.751   0.4347   0.3772   0.9908   0
1169.811   0.5099   0.3827   0.9908   0
1169.871   0.3979   0.3737   0.9908   0
1169.931   0.1412   0.3494   0.9907   0
1169.990   0.4337   0.3757   0.9907   0
1170.050   0.4696   0.3789   0.9907   0
1170.110   0.2869   0.3624   0.9907   0
1170.170   0.4346   0.3765   0.9906   0
1170.230   0.2879   0.3626   0.9906   0
1170.290   0.3238   0.3652   0.9906   0
1170.349   0.2135   0.3557   0.9906   0
1170.409   0.6171   0.3916   0.9905   0
1170.469   0.2144   0.3548   0.9905   0
1170.529   0.2139   0.3547   0.9905   0
1170.589   0.3977   0.3709   0.9905   0
1170.648   0.2877   0.3615   0.9904   0
1170.708   0.4345   0.3743   0.9904   0
1170.768   0.2877   0.3616   0.9904   0
1170.828   0.1785   0.3508   0.9904   0
1170.888   0.4347   0.3743   0.9903   0
1170.948   0.3249   0.3638   0.9903   0
1171.007   0.2536   0.3577   0.9903   0
1171.067   0.1818   0.3501   0.9903   0
1171.127   0.2536   0.3572   0.9902   0
1171.187   0.3254   0.3642   0.9902   0
1171.247   0.2524   0.3571   0.9902   0
1171.306   0.1801   0.3504   0.9902   0
1171.366   0.4700   0.3767   0.9901   0
1171.426   0.2153   0.3538   0.9901   0
1171.486   0.4338   0.3733   0.9901   0
1171.546   0.2880   0.3609   0.9901   0
1171.606   0.3665   0.3686   0.9900   0
1171.665   0.4123   0.3748   0.9900   0
1171.725   0.4179   0.3752   0.9900   0
1171.785   0.1090   0.3454   0.9900   0
1171.845   0.4527   0.3775   0.9899   0
1171.905   0.3360   0.3674   0.9899   0
1171.964   0.3387   0.3677   0.9899   0
1172.024   0.2981   0.3629   0.9898   0
1172.084   0.2526   0.3580   0.9898   0
1172.144   0.2499   0.3569   0.9898   0
1172.204   0.3917   0.3697   0.9898   0
1172.264   0.4649   0.3760   0.9897   0
1172.323   0.2474   0.3561   0.9897   0
1172.383   0.3201   0.3629   0.9897   0
1172.443   0.2477   0.3569   0.9897   0
1172.503   0.3203   0.3637   0.9896   0
1172.563   0.3577   0.3673   0.9896   0
1172.622   0.1402   0.3462   0.9896   0
1172.682   0.4671   0.3769   0.9895   0
1172.742   0.2486   0.3564   0.9895   0
1172.802   0.1758   0.3499   0.9895   0
1172.862   0.3202   0.3629   0.9895   0
1172.922   0.1758   0.3498   0.9894   0
1172.981   0.2847   0.3600   0.9894   0
1173.041   0.2479   0.3569   0.9894   0
1173.101   0.3208   0.3639   0.9893   0
1173.161   0.4302   0.3720   0.9893   0
1173.221   0.2842   0.3601   0.9893   0
1173.281   0.1763   0.3501   0.9893   0
1173.340   0.1032   0.3430   0.9892   0
1173.400   0.3580   0.3673   0.9892   0
1173.460   0.2125   0.3538   0.9892   0
1173.520   0.0669   0.3393   0.9891   0
1173.580   0.1028   0.3430   0.9891   0
1173.639   0.3580   0.3677   0.9891   0
1173.699   0.3226   0.3636   0.9890   0
1173.759   0.2146   0.3541   0.9890   0
1173.819   0.3241   0.3642   0.9890   0
1173.879   0.3615   0.3678   0.9889   0
1173.938   0.2160   0.3540   0.9889   0
1173.998   0.1825   0.3517   0.9889   0
1174.058   0.1115   0.3450   0.9889   0
1174.118   0.2299   0.3581   0.9888   0
1174.178   0.4215   0.3764   0.9888   0
1174.238   0.1907   0.3533   0.9888   0
1174.297   0.2282   0.3579   0.9887   0
1174.357   0.2302   0.3585   0.9887   0
1174.417   0.3038   0.3645   0.9887   0
1174.477   0.1463   0.3484   0.9886   0
1174.537   0.3278   0.3660   0.9886   0
1174.597   0.1424   0.3477   0.9886   0
1174.656   0.3604   0.3674   0.9885   0
1174.716   0.4691   0.3778   0.9885   0
1174.776   0.2148   0.3551   0.9885   0
1174.836   0.3594   0.3681   0.9884   0
1174.896   0.3597   0.3673   0.9884   0
1174.955   0.1783   0.3517   0.9884   0
1175.015   0.1422   0.3482   0.9883   0
1175.075   0.3608   0.3687   0.9883   0
1175.135   0.3615   0.3692   0.9883   0
1175.195   0.2153   0.3557   0.9882   0
1175.255   0.2518   0.3589   0.9882   0
1175.314   0.3986   0.3725   0.9882   0
1175.374   0.1795   0.3520   0.9881   0
1175.434   0.4350   0.3764   0.9881   0
1175.494   0.3261   0.3659   0.9881   0
1175.554   0.3266   0.3669   0.9880   0
1175.614   0.1070   0.3451   0.9880   0
1175.673   0.4355   0.3764   0.9880   0
1175.733   0.4725   0.3795   0.9879   0
1175.793   0.1435   0.3495   0.9879   0
1175.853   0.2166   0.3564   0.9879   0
1175.913   0.3629   0.3705   0.9878   0
1175.972   0.2904   0.3637   0.9878   0
1176.032   0.3265   0.3673   0.9877   0
1176.092   0.4011   0.3744   0.9877   0
1176.152   0.2910   0.3641   0.9877   0
1176.212   0.4364   0.3770   0.9876   0
1176.271   0.3637   0.3708   0.9876   0
1176.331   0.2531   0.3609   0.9876   0
1176.391   0.4360   0.3782   0.9875   0
1176.451   0.4007   0.3751   0.9875   0
1176.511   0.3282   0.3680   0.9875   0
1176.571   0.2910   0.3654   0.9874   0
1176.630   0.2906   0.3655   0.9874   0
1176.690   0.2906   0.3641   0.9873   0
1176.750   0.5112   0.3848   0.9873   0
1176.810   0.4434   0.3803   0.9873   0
1176.870   0.3380   0.3708   0.9872   0
1176.930   0.3820   0.3771   0.9872   0
1176.989   0.1913   0.3591   0.9871   0
1177.049   0.2672   0.3669   0.9871   0
1177.109   0.2662   0.3666   0.9871   0
1177.169   0.5372   0.3922   0.9870   0
1177.229   0.1517   0.3557   0.9870   0
1177.288   0.3899   0.3776   0.9870   0
1177.348   0.3110   0.3717   0.9869   0
1177.408   0.3467   0.3741   0.9869   0
1177.468   0.5003   0.3883   0.9868   1
1177.528   0.3045   0.3704   0.9868   1
1177.588   0.4580   0.3845   0.9868   1
1177.647   0.5342   0.3913   0.9867   1
1177.707   0.3763   0.3773   0.9867   1
1177.767   0.3690   0.3761   0.9866   1
1177.827   0.3641   0.3746   0.9866   1
1177.887   0.5110   0.3868   0.9865   1
1177.946   0.4751   0.3848   0.9865   1
1178.006   0.5869   0.3946   0.9865   1
1178.066   0.4394   0.3822   0.9864   1
1178.126   0.6259   0.3979   0.9864   1
1178.186   0.6250   0.3983   0.9863   1
1178.246   0.6240   0.3993   0.9863   1
1178.305   0.4392   0.3823   0.9863   1
1178.365   0.6256   0.3972   0.9862   1
1178.425   0.5509   0.3923   0.9862   1
1178.485   0.5509   0.3943   0.9861   1
1178.545   0.8492   0.4161   0.9861   1
1178.604   0.4778   0.3867   0.9860   1
1178.664   0.7009   0.4044   0.9860   1
1178.724   0.9626   0.4259   0.9859   1
1178.784   0.6275   0.4003   0.9859   1
1178.844   0.8889   0.4219   0.9859   1
1178.904   0.8536   0.4191   0.9858   1
1178.963   0.9649   0.4270   0.9858   1
1179.023   0.9643   0.4260   0.9857   1
1179.083   0.8903   0.4212   0.9857   1
1179.143   0.8898   0.4190   0.9856   1
1179.203   1.0769   0.4354   0.9856   1
1179.262   1.0022   0.4285   0.9855   1
1179.322   0.9645   0.4275   0.9855   1
1179.382   0.7393   0.4095   0.9854   1
1179.442   0.8531   0.4175   0.9854   1
1179.502   1.1112   0.4376   0.9854   1
1179.562   1.1489   0.4392   0.9853   1
1179.621   1.1475   0.4389   0.9853   1
1179.681   0.9977   0.4284   0.9852   1
1179.741   0.9608   0.4257   0.9852   1
1179.801   0.8110   0.4126   0.9851   1
1179.861   0.9607   0.4241   0.9851   1
1179.921   0.9492   0.3931   0.9850   1
1179.980   0.7085   0.4060   0.9850   1
1180.040   0.8445   0.4192   0.9849   1
1180.100   0.8557   0.4205   0.9849   1
1180.160   0.6588   0.4063   0.9848   1
1180.220   0.9663   0.4265   0.9848   1
1180.279   1.1940   0.4453   0.9847   0
1180.339   0.8812   0.4202   0.9847   0
1180.399   0.5323   0.3920   0.9846   0
1180.459   0.6030   0.3968   0.9846   0
1180.519   0.8200   0.4148   0.9845   0
1180.578   0.5856   0.3949   0.9845   0
1180.638   0.8441   0.4155   0.9844   0
1180.698   0.8065   0.4103   0.9844   0
1180.758   0.6234   0.3949   0.9843   0
1180.818   0.9163   0.4193   0.9843   0
1180.878   0.5823   0.3929   0.9842   0
1180.938   0.6179   0.3954   0.9842   0
1180.997   0.7648   0.4073   0.9841   0
1181.057   0.7273   0.4048   0.9840   0
1181.117   0.8378   0.4116   0.9840   0
1181.177   0.5784   0.3903   0.9839   0
1181.237   0.8728   0.4147   0.9839   0
1181.296   0.8351   0.4118   0.9838   0
1181.356   0.5793   0.3905   0.9838   0
1181.416   0.6525   0.3965   0.9837   0
1181.476   0.9457   0.4197   0.9837   0
1181.536   0.7614   0.4041   0.9836   0
1181.595   0.9437   0.4186   0.9836   0
1181.655   0.7955   0.4068   0.9835   0
1181.715   0.8681   0.4124   0.9834   0
1181.775   0.8668   0.4132   0.9834   0
1181.835   0.7213   0.3992   0.9833   0
1181.895   0.5773   0.3885   0.9833   0
1181.954   0.6864   0.3970   0.9832   0
1182.014   0.7233   0.4005   0.9832   0
1182.074   0.3953   0.3729   0.9831   0
1182.134   0.6873   0.3965   0.9830   0
1182.194   1.1234   0.4301   0.9830   0
1182.254   0.7229   0.3992   0.9829   0
1182.313   0.8328   0.4082   0.9829   0
1182.373   0.5544   0.3862   0.9828   0
1182.433   0.9080   0.4146   0.9827   0
1182.493   0.6839   0.3997   0.9827   0
1182.553   0.8342   0.4112   0.9826   0
1182.612   0.7918   0.4085   0.9826   0
1182.672   0.8659   0.4138   0.9825   0
1182.732   0.6390   0.3926   0.9824   0
1182.792   0.3354   0.3666   0.9824   0
1182.852   0.8868   0.4093   0.9823   0
1182.911   0.5830   0.3854   0.9822   0
1182.971   0.6801   0.3931   0.9822   0
1183.031   0.4285   0.3718   0.9821   0
1183.091   0.7154   0.3958   0.9821   0
1183.151   0.6414   0.3890   0.9820   0
1183.211   0.8203   0.4024   0.9819   0
1183.270   0.7845   0.3986   0.9819   0
1183.330   0.5318   0.3780   0.9818   0
1183.390   0.6386   0.3885   0.9817   0
1183.450   0.6041   0.3854   0.9817   0
1183.510   0.5322   0.3778   0.9816   0
1183.570   0.5318   0.3784   0.9815   0
1183.629   0.6027   0.3843   0.9815   0
1183.689   0.4950   0.3744   0.9814   0
1183.749   0.4947   0.3754   0.9813   0
1183.809   0.4594   0.3712   0.9813   0
1183.869   0.7440   0.3947   0.9812   0
1183.928   0.6736   0.3881   0.9811   0
1183.988   0.7092   0.3918   0.9811   0
1184.048   0.6017   0.3815   0.9810   0
1184.108   0.6018   0.3821   0.9809   0
1184.168   0.6026   0.3821   0.9808   0
1184.228   0.4957   0.3711   0.9808   0
1184.287   0.7081   0.3896   0.9807   0
1184.347   0.7092   0.3899   0.9806   0
1184.407   0.4594   0.3680   0.9806   0
1184.467   0.4944   0.3709   0.9805   0
1184.527   0.5641   0.3757   0.9804   0
1184.586   0.5642   0.3760   0.9803   0
1184.646   0.6697   0.3845   0.9803   0
1184.706   0.5979   0.3797   0.9802   0
1184.766   0.4228   0.3635   0.9801   0
1184.826   0.3162   0.3536   0.9801   0
1184.886   0.3161   0.3533   0.9800   0
1184.945   0.5955   0.3765   0.9799   0
1185.005   0.6304   0.3802   0.9798   0
1185.065   0.5600   0.3733   0.9797   0
1185.125   0.5946   0.3753   0.9797   0
1185.185   0.8104   0.3932   0.9796   0
1185.245   0.6809   0.3836   0.9795   0
1185.304   0.6943   0.3861   0.9794   0
1185.364   0.3702   0.3583   0.9794   0
1185.424   0.6579   0.3837   0.9793   0
1185.484   0.6522   0.3817   0.9792   0
1185.544   0.5774   0.3746   0.9791   0
1185.603   0.5058   0.3683   0.9790   0
1185.663   0.6480   0.3801   0.9790   0
1185.723   0.5449   0.3704   0.9789   0
1185.783   0.3229   0.3508   0.9788   0
1185.843   0.5400   0.3696   0.9787   0
1185.902   0.3930   0.3579   0.9786   0
1185.962   0.5375   0.3688   0.9785   0
1186.022   0.3940   0.3574   0.9785   0
1186.082   0.6787   0.3817   0.9784   0
1186.142   0.5257   0.3665   0.9783   0
1186.202   0.3393   0.3490   0.9782   0
1186.261   0.4760   0.3602   0.9781   0
1186.321   0.5108   0.3624   0.9780   0
1186.381   0.4761   0.3588   0.9780   0
1186.441   0.2704   0.3399   0.9779   0
1186.501   0.5079   0.3616   0.9778   0
1186.561   0.4402   0.3564   0.9777   0
1186.620   0.5072   0.3615   0.9776   0
1186.680   0.4728   0.3575   0.9775   0
1186.740   0.4736   0.3577   0.9774   0
1186.800   0.8131   0.3846   0.9773   0
1186.860   0.5072   0.3593   0.9772   0
1186.919   0.6420   0.3704   0.9772   0
1186.979   0.7781   0.3812   0.9771   0
1187.039   0.8782   0.3879   0.9770   0
1187.099   0.4377   0.3524   0.9769   0
1187.159   0.8101   0.3833   0.9768   0
1187.219   0.6734   0.3732   0.9767   0
1187.278   0.4366   0.3527   0.9766   0
1187.338   0.8409   0.3862   0.9765   0
1187.398   0.5032   0.3574   0.9764   0
1187.458   0.5693   0.3627   0.9763   0
1187.518   0.6366   0.3679   0.9762   0
1187.578   0.6027   0.3658   0.9761   0
1187.637   0.5690   0.3631   0.9760   0
1187.697   0.5014   0.3563   0.9759   0
1187.757   0.6359   0.3681   0.9758   0
1187.817   0.7695   0.3765   0.9757   0
1187.877   0.3660   0.3446   0.9756   0
1187.936   0.6683   0.3692   0.9755   0
1187.996   0.4656   0.3530   0.9754   0
1188.056   0.4319   0.3490   0.9753   0
1188.116   0.5986   0.3620   0.9752   0
1188.176   0.4647   0.3519   0.9751   0
1188.235   0.5317   0.3575   0.9750   0
1188.295   0.5656   0.3598   0.9749   0
1188.355   0.3963   0.3454   0.9748   0
1188.415   0.5682   0.3602   0.9747   0
1188.475   0.6188   0.3666   0.9746   0
1188.535   0.5552   0.3601   0.9745   0
1188.594   0.4485   0.3514   0.9744   0
1188.654   0.6225   0.3644   0.9742   0
1188.714   0.4136   0.3485   0.9741   0
1188.774   0.5192   0.3577   0.9740   0
1188.834   0.7267   0.3737   0.9739   0
1188.894   0.8162   0.3780   0.9738   0
1188.953   0.5942   0.3602   0.9737   0
1189.013   0.6271   0.3626   0.9736   0
1189.073   0.7941   0.3761   0.9735   0
1189.133   0.6268   0.3621   0.9733   0
1189.193   0.5278   0.3532   0.9732   0
1189.252   0.6925   0.3682   0.9731   0
1189.312   0.7262   0.3696   0.9730   0
1189.372   0.5267   0.3541   0.9729   0
1189.432   0.5586   0.3552   0.9728   0
1189.492   0.7573   0.3726   0.9726   0
1189.552   0.4924   0.3505   0.9725   0
1189.611   0.5591   0.3548   0.9724   0
1189.671   0.5922   0.3572   0.9723   0
1189.731   0.5583   0.3551   0.9721   0
1189.791   0.3582   0.3380   0.9720   0
1189.851   0.4245   0.3440   0.9719   0
1189.910   0.4248   0.3425   0.9718   0
1189.970   0.5890   0.3573   0.9716   0
1190.030   0.2598   0.3275   0.9715   0
1190.090   0.3910   0.3386   0.9714   0
1190.150   0.1278   0.3149   0.9713   0
1190.210   0.0618   0.3085   0.9711   0
1190.269   0.0283   0.3049   0.9710   0
1190.329   0.0609   0.3082   0.9709   0
1190.389   0.0281   0.3046   0.9707   0
1190.449   -0.0039   0.3011   0.9706   0
1190.509   0.1272   0.3142   0.9705   0
1190.568   0.0948   0.3108   0.9703   0
1190.628   0.1265   0.3139   0.9702   0
1190.688   0.1269   0.3137   0.9701   0
1190.748   0.1607   0.3168   0.9699   0
1190.808   0.1280   0.3136   0.9698   0
1190.868   0.1998   0.3214   0.9697   0
1190.927   0.4411   0.3439   0.9695   0
1190.987   0.4706   0.3466   0.9694   0
1191.047   0.1677   0.3183   0.9692   0
1191.107   0.4732   0.3461   0.9691   0
1191.167   0.4063   0.3395   0.9689   0
1191.226   0.3701   0.3359   0.9688   0
1191.286   0.3623   0.3344   0.9686   0
1191.346   0.3869   0.3359   0.9685   0
1191.406   0.4845   0.3449   0.9683   0
1191.466   0.4842   0.3430   0.9682   0
1191.526   0.3540   0.3324   0.9680   0
1191.585   0.3538   0.3328   0.9679   0
1191.645   0.2574   0.3226   0.9677   0
1191.705   0.3220   0.3291   0.9676   0
1191.765   0.1924   0.3170   0.9674   0
1191.825   0.1921   0.3167   0.9673   0
1191.885   0.0301   0.3005   0.9671   0
1191.944   0.0300   0.3002   0.9670   0
1192.004   -0.0022   0.2968   0.9668   0
1192.064   0.0307   0.3000   0.9666   0
1192.124   0.0307   0.2998   0.9665   0
1192.184   -0.0016   0.2963   0.9663   0
1192.243   -0.0015   0.2961   0.9662   0
1192.303   -0.0015   0.2960   0.9660   0
1192.363   -0.0009   0.2958   0.9658   0
1192.423   -0.0014   0.2957   0.9657   0
1192.483   -0.0015   0.2955   0.9655   0
1192.542   -0.0015   0.2953   0.9653   0
1192.602   -0.0015   0.2952   0.9651   0
1192.662   0.0302   0.2983   0.9650   0
1192.722   0.0935   0.3047   0.9648   0
1192.782   0.2540   0.3198   0.9646   0
1192.842   0.2224   0.3163   0.9644   0
1192.901   0.5105   0.3419   0.9643   0
1192.961   0.3179   0.3254   0.9641   0
1193.021   0.0611   0.3006   0.9639   0
1193.081   0.0610   0.3005   0.9637   0
1193.141   -0.0031   0.2938   0.9635   0
1193.201   -0.0031   0.2936   0.9634   0
1193.260   -0.0031   0.2935   0.9632   0
1193.320   0.0289   0.2966   0.9630   0
1193.380   0.0290   0.2964   0.9628   0
1193.440   0.0290   0.2963   0.9626   0
1193.500   0.0610   0.2994   0.9624   0
1193.559   0.0606   0.2992   0.9622   0
1193.619   0.0923   0.3022   0.9620   0
1193.679   0.2610   0.3187   0.9618   0
1193.739   0.2635   0.3199   0.9616   0
1193.799   0.4623   0.3376   0.9614   0
1193.859   0.4308   0.3356   0.9612   0
1193.918   0.3285   0.3255   0.9610   0
1193.978   0.2646   0.3194   0.9608   0
1194.038   0.2985   0.3224   0.9606   0
1194.098   0.3052   0.3242   0.9604   0
1194.158   0.4694   0.3377   0.9602   0
1194.218   0.3678   0.3282   0.9600   0
1194.277   0.2303   0.3154   0.9598   0
1194.337   0.4285   0.3337   0.9596   0
1194.397   0.5627   0.3446   0.9593   0
1194.457   0.5998   0.3486   0.9591   0
1194.517   0.2297   0.3141   0.9589   0
1194.576   0.2237   0.3132   0.9587   0
1194.636   0.1549   0.3055   0.9585   0
1194.696   0.0920   0.2995   0.9582   0
1194.756   0.0924   0.2993   0.9580   0
1194.816   0.0606   0.2960   0.9578   0
1194.875   0.0285   0.2926   0.9575   0
1194.935   -0.0034   0.2892   0.9573   0
1194.995   0.0587   0.2955   0.9571   0
1195.055   -0.0045   0.2889   0.9568   0
1195.115   -0.0049   0.2887   0.9566   0
1195.175   -0.0053   0.2886   0.9564   0
1195.234   -0.0053   0.2884   0.9561   0
1195.294   0.0575   0.2946   0.9559   0
1195.354   -0.0053   0.2881   0.9556   0
1195.414   0.0248   0.2911   0.9554   0
1195.474   -0.0060   0.2878   0.9551   0
1195.534   0.0256   0.2908   0.9549   0
1195.593   -0.0060   0.2875   0.9546   0
1195.653   0.0879   0.2965   0.9544   0
1195.713   0.3373   0.3201   0.9541   0
1195.773   0.3053   0.3163   0.9539   0
1195.833   0.3988   0.3253   0.9536   0
1195.892   0.4307   0.3274   0.9533   0
1195.952   0.6172   0.3422   0.9531   0
1196.012   0.5561   0.3387   0.9528   0
1196.072   0.6167   0.3415   0.9525   0
1196.132   0.1804   0.3046   0.9522   0
1196.192   0.4293   0.3265   0.9520   0
1196.251   0.4907   0.3306   0.9517   0
1196.311   0.3960   0.3234   0.9514   0
1196.371   0.3962   0.3223   0.9511   0
1196.431   0.3352   0.3174   0.9508   0
1196.491   0.6757   0.3445   0.9505   0
1196.551   0.5526   0.3358   0.9503   0
1196.610   0.6141   0.3398   0.9500   0
1196.670   0.7701   0.3508   0.9497   0
1196.730   0.6455   0.3420   0.9494   0
1196.790   0.5351   0.3355   0.9491   0
1196.850   0.8984   0.3641   0.9488   0
1196.909   0.6812   0.3495   0.9485   0
1196.969   0.6475   0.3455   0.9481   0
1197.029   0.9328   0.3670   0.9478   0
1197.089   0.4815   0.3313   0.9475   0
1197.149   0.4836   0.3307   0.9472   0
1197.208   0.6469   0.3449   0.9469   0
1197.268   0.3833   0.3211   0.9465   0
1197.328   0.3701   0.3187   0.9462   0
1197.388   0.5835   0.3364   0.9459   0
1197.448   0.7375   0.3482   0.9456   0
1197.508   0.6745   0.3434   0.9452   0
1197.567   0.6116   0.3389   0.9449   0
1197.627   0.8261   0.3536   0.9445   0
1197.687   0.3656   0.3170   0.9442   0
1197.747   0.5180   0.3287   0.9438   0
1197.807   0.7014   0.3437   0.9435   0
1197.867   0.7920   0.3514   0.9431   0
1197.926   0.6080   0.3366   0.9428   0
1197.986   0.6052   0.3364   0.9424   0
1198.046   0.3915   0.3184   0.9420   0
1198.106   0.6346   0.3384   0.9417   0
1198.166   0.4514   0.3229   0.9413   0
1198.225   0.6340   0.3391   0.9409   0
1198.285   0.5417   0.3066   0.9405   0
1198.345   0.5713   0.3334   0.9402   0
1198.405   0.3594   0.3144   0.9398   0
1198.465   0.4199   0.3201   0.9394   0
1198.525   0.3289   0.3116   0.9390   0
1198.584   0.2080   0.3011   0.9386   0
1198.644   0.3897   0.3164   0.9382   0
1198.704   0.6013   0.3340   0.9378   0
1198.764   0.5411   0.3300   0.9374   0
1198.824   0.2688   0.3052   0.9370   0
1198.883   0.4193   0.3191   0.9365   0
1198.943   0.4202   0.3187   0.9361   0
1199.003   0.3289   0.3108   0.9357   0
1199.063   0.3278   0.3094   0.9353   0
1199.123   0.3573   0.3131   0.9348   0
1199.183   0.3969   0.3176   0.9344   0
1199.242   0.3123   0.3111   0.9339   0
1199.302   0.2180   0.3019   0.9335   0
1199.362   0.2475   0.3047   0.9330   0
1199.422   0.1506   0.2949   0.9326   0
1199.482   0.0583   0.2852   0.9321   0
1199.542   0.1199   0.2922   0.9316   0
1199.601   0.0563   0.2854   0.9312   0
1199.661   0.3022   0.3075   0.9307   0
1199.721   0.2937   0.3057   0.9302   0
1199.781   0.2935   0.3062   0.9297   0
1199.841   0.3829   0.3139   0.9292   0
1199.900   0.3837   0.3135   0.9287   0
1199.960   0.3843   0.3135   0.9282   0
1200.020   0.1738   0.2946   0.9277   0
1200.080   0.2641   0.3031   0.9272   0
1200.140   0.1447   0.2915   0.9267   0
1200.199   0.1150   0.2885   0.9262   0
1200.259   0.0551   0.2824   0.9256   0
1200.319   0.0557   0.2823   0.9251   0
1200.379   0.0861   0.2852   0.9246   0
1200.439   0.1755   0.2934   0.9240   0
1200.499   0.1463   0.2905   0.9235   0
1200.558   0.2061   0.2964   0.9229   0
1200.618   0.0866   0.2846   0.9223   0
1200.678   0.0270   0.2785   0.9218   0
1200.738   -0.0031   0.2753   0.9212   0
1200.798   0.1160   0.2872   0.9206   0
1200.858   0.1162   0.2871   0.9200   0
1200.917   0.1164   0.2866   0.9194   0
1200.977   0.1458   0.2897   0.9188   0
1201.037   0.2339   0.2982   0.9182   0
1201.097   0.0850   0.2836   0.9176   0
1201.157   0.0552   0.2805   0.9170   0
1201.216   0.0551   0.2804   0.9163   0
1201.276   0.0551   0.2802   0.9157   0
1201.336   -0.0043   0.2741   0.9151   0
1201.396   -0.0043   0.2740   0.9144   0
1201.456   0.0242   0.2769   0.9137   0
1201.516   0.0239   0.2767   0.9131   0
1201.575   -0.0062   0.2736   0.9124   0
1201.635   -0.0064   0.2735   0.9117   0
1201.695   -0.0064   0.2734   0.9110   0
1201.755   0.0531   0.2791   0.9103   0
1201.815   -0.0055   0.2731   0.9096   0
1201.875   -0.0058   0.2730   0.9089   0
1201.934   0.0533   0.2788   0.9082   0
1201.994   -0.0052   0.2729   0.9075   0
1202.054   0.0265   0.2765   0.9067   0
1202.114   -0.0051   0.2739   0.9060   0
1202.174   -0.0060   0.2738   0.9052   0
1202.233   -0.0068   0.2733   0.9044   0
1202.293   0.0244   0.2763   0.9037   0
1202.353   -0.0061   0.2732   0.9029   0
1202.413   -0.0059   0.2733   0.9021   0
1202.473   0.0261   0.2763   0.9013   0
1202.532   0.0568   0.2796   0.9005   0
1202.592   -0.0046   0.2732   0.8996   0
1202.652   0.0255   0.2758   0.8988   0
1202.712   0.0857   0.2819   0.8980   0
1202.772   0.0552   0.2786   0.8971   0
1202.832   0.0250   0.2759   0.8962   0
1202.891   -0.0058   0.2722   0.8954   0
1202.951   0.0555   0.2780   0.8945   0
1203.011   0.2030   0.2919   0.8936   0
1203.071   0.1403   0.2857   0.8927   0
1203.131   0.2290   0.2934   0.8917   0
1203.191   0.2293   0.2934   0.8908   0
1203.250   0.3469   0.3040   0.8899   0
1203.310   0.4342   0.3113   0.8889   0
1203.370   0.4058   0.3088   0.8879   0
1203.430   0.4050   0.3093   0.8869   0
1203.490   0.2592   0.2959   0.8859   0
1203.549   0.3472   0.3034   0.8849   0
1203.609   0.4337   0.3114   0.8839   0
1203.669   0.3461   0.3032   0.8829   0
1203.729   0.3758   0.3056   0.8818   0
1203.789   0.3747   0.3053   0.8808   0
1203.849   0.3174   0.2998   0.8797   0
1203.908   0.2881   0.2978   0.8786   0
1203.968   0.5501   0.3204   0.8775   0
1204.028   0.3462   0.3034   0.8764   0
1204.088   0.5514   0.3204   0.8752   0
1204.148   0.4052   0.3079   0.8741   0
1204.207   0.5506   0.3191   0.8729   0
1204.267   0.4044   0.3083   0.8717   0
1204.327   0.3748   0.3049   0.8705   0
1204.387   0.3755   0.3056   0.8693   0
1204.447   0.1705   0.2867   0.8681   0
1204.507   0.2279   0.2918   0.8668   0
1204.566   0.4021   0.3065   0.8656   0
1204.626   0.3158   0.3002   0.8643   0
1204.686   0.5469   0.3186   0.8630   0
1204.746   0.3728   0.3042   0.8617   0
1204.806   0.6334   0.3262   0.8603   0
1204.865   0.3721   0.3033   0.8590   0
1204.925   0.3141   0.2986   0.8576   0
1204.985   0.3136   0.2983   0.8562   0
1205.045   0.4297   0.3087   0.8548   0
1205.105   0.2835   0.2960   0.8533   0
1205.165   0.3111   0.2988   0.8519   0
1205.224   0.3184   0.3002   0.8504   0
1205.284   0.3575   0.3047   0.8489   0
1205.344   0.3881   0.3078   0.8473   0
1205.404   0.4742   0.3137   0.8458   0
1205.464   0.3822   0.3062   0.8442   0
1205.523   0.3227   0.3009   0.8426   0
1205.583   0.4470   0.3131   0.8410   0
1205.643   0.5040   0.3157   0.8394   0
1205.703   0.3473   0.3023   0.8377   0
1205.763   0.3398   0.3010   0.8360   0
1205.823   0.3080   0.2976   0.8343   0
1205.882   0.2793   0.2946   0.8325   0
1205.942   0.1918   0.2870   0.8308   0
1206.002   0.0484   0.2734   0.8290   0
1206.062   0.1348   0.2815   0.8271   0
1206.122   0.1353   0.2817   0.8253   0
1206.182   0.0215   0.2703   0.8234   0
1206.241   -0.0063   0.2674   0.8215   0
1206.301   0.0213   0.2703   0.8195   0
1206.361   -0.0071   0.2673   0.8175   0
1206.421   -0.0072   0.2673   0.8155   0
1206.481   -0.0073   0.2672   0.8135   0
1206.540   -0.0058   0.2672   0.8114   0
1206.600   -0.0058   0.2671   0.8093   0
1206.660   0.0225   0.2700   0.8072   0
1206.720   0.0809   0.2757   0.8050   0
1206.780   -0.0046   0.2670   0.8028   0
1206.839   0.0523   0.2727   0.8005   0
1206.899   0.0238   0.2698   0.7982   0
1206.959   0.0815   0.2755   0.7959   0
1207.019   0.0530   0.2726   0.7936   0
1207.079   0.1682   0.2838   0.7912   0
1207.139   0.2253   0.2885   0.7887   0
1207.198   0.3692   0.3017   0.7862   0
1207.258   0.0538   0.2724   0.7837   0
1207.318   0.1686   0.2833   0.7811   0
1207.378   0.2826   0.2940   0.7785   0
1207.438   0.1971   0.2859   0.7759   0
1207.498   0.2545   0.2912   0.7732   0
1207.557   0.2258   0.2885   0.7704   0
1207.617   0.2918   0.2954   0.7676   0
1207.677   0.3897   0.3059   0.7647   0
1207.737   0.2691   0.2936   0.7619   0
1207.797   0.0565   0.2734   0.7589   0
1207.856   0.0563   0.2729   0.7559   0
1207.916   0.0562   0.2731   0.7528   0
1207.976   0.1469   0.2824   0.7497   0
1208.036   -0.0047   0.2666   0.7466   0
1208.096   -0.0050   0.2662   0.7433   0
1208.156   -0.0049   0.2660   0.7401   0
1208.215   -0.0050   0.2658   0.7367   0
1208.275   -0.0047   0.2658   0.7333   0
1208.335   -0.0048   0.2658   0.7298   0
1208.395   -0.0041   0.2657   0.7263   0
1208.455   -0.0038   0.2657   0.7227   0
1208.515   -0.0034   0.2657   0.7190   0
1208.574   -0.0040   0.2656   0.7153   0
1208.634   -0.0042   0.2656   0.7115   0
1208.694   0.0238   0.2684   0.7076   0
1208.754   -0.0054   0.2655   0.7037   0
1208.814   0.0523   0.2712   0.6997   0
1208.873   0.1091   0.2768   0.6956   0
1208.933   0.1662   0.2823   0.6914   0
1208.993   0.1669   0.2824   0.6871   0
1209.053   0.4537   0.3073   0.6828   0
1209.113   0.4241   0.3040   0.6784   0
1209.172   0.6533   0.3220   0.6739   0
1209.232   0.7101   0.3266   0.6693   0
1209.292   0.5672   0.3162   0.6646   0
1209.352   0.4522   0.3069   0.6598   1
1209.412   0.3654   0.2983   0.6550   1
1209.472   0.6226   0.3212   0.6500   1
1209.531   0.5370   0.3141   0.6449   1
1209.591   0.5361   0.3142   0.6398   1
1209.651   0.5937   0.3177   0.6345   1
1209.711   0.4224   0.3049   0.6291   1
1209.771   0.7932   0.3335   0.6237   1
1209.831   0.6224   0.3203   0.6181   1
1209.890   0.4513   0.3067   0.6124   1
1209.950   0.5645   0.3157   0.6066   1
1210.010   0.5059   0.3113   0.6006   1
1210.070   0.7040   0.3262   0.5946   1
1210.130   0.6480   0.3220   0.5884   1
1210.189   0.4755   0.3078   0.5821   1
1210.249   0.3882   0.3013   0.5757   1
1210.309   0.6736   0.3234   0.5692   1
1210.369   0.5881   0.3170   0.5625   1
1210.429   0.4742   0.3081   0.5557   1
1210.489   0.4040   0.3031   0.5488   1
1210.548   0.3815   0.3026   0.5417   1
1210.608   0.3790   0.3027   0.5345   1
1210.668   0.3466   0.2990   0.5271   1
1210.728   0.4908   0.3110   0.5196   1
1210.788   0.3461   0.2987   0.5119   1
1210.847   0.4954   0.3108   0.5041   1
1210.907   0.2854   0.2932   0.4961   1
1210.967   0.2044   0.2865   0.4880   1
1211.027   0.3781   0.3021   0.4797   1
1211.087   0.2593   0.2909   0.4713   1
1211.147   0.5559   0.3166   0.4627   1
1211.206   0.3207   0.2971   0.4540   1
1211.266   0.4693   0.3087   0.4451   1
1211.326   0.2549   0.2897   0.4360   1
1211.386   0.4467   0.3043   0.4268   1
1211.446   0.2759   0.2904   0.4174   1
1211.505   0.3609   0.2966   0.4078   1
1211.565   0.1630   0.2796   0.3981   1
1211.625   0.2187   0.2846   0.3882   1
1211.685   0.1334   0.2764   0.3782   1
1211.745   0.1900   0.2818   0.3680   1
1211.805   0.1333   0.2762   0.3576   1
1211.864   0.1902   0.2818   0.3471   1
1211.924   0.1616   0.2791   0.3365   1
1211.984   0.2737   0.2890   0.3257   1
1212.044   0.0748   0.2707   0.3147   1
1212.104   0.2433   0.2856   0.3037   1
1212.163   0.1029   0.2732   0.2925   1
1212.223   0.1596   0.2784   0.2812   1
1212.283   0.1314   0.2759   0.2698   1
1212.343   0.1872   0.2809   0.2583   1
1212.403   0.1590   0.2782   0.2468   1
1212.463   0.1588   0.2781   0.2352   1
1212.522   0.1027   0.2730   0.2235   1
1212.582   0.1020   0.2728   0.2119   1
1212.642   0.2717   0.2878   0.2002   1
1212.702   0.2437   0.2853   0.1886   1
1212.762   0.0744   0.2697   0.1770   1
1212.822   0.1304   0.2752   0.1655   1
1212.881   0.1017   0.2725   0.1541   1
1212.941   0.1303   0.2750   0.1428   1
1213.001   0.1316   0.2751   0.1317   1
1213.061   0.0759   0.2695   0.1209   1
1213.121   0.1314   0.2749   0.1103   1
1213.180   0.0462   0.2667   0.0999   1
1213.240   0.0461   0.2665   0.0899   1
1213.300   0.0458   0.2665   0.0803   1
1213.360   0.0462   0.2665   0.0711   1
1213.420   -0.0102   0.2608   0.0624   1
1213.479   -0.0116   0.2607   0.0542   1
1213.539   0.0160   0.2635   0.0465   1
1213.599   0.0155   0.2633   0.0394   1
1213.659   0.0154   0.2636   0.0329   1
1213.719   0.1048   0.2732   0.0270   1
1213.779   0.0165   0.2642   0.0218   1
1213.839   0.0451   0.2672   0.0172   1
1213.898   0.0730   0.2701   0.0132   1
1213.958   0.0157   0.2647   0.0099   1
1214.018   0.0444   0.2671   0.0072   1
1214.078   0.0419   0.2662   0.0051   0
1214.138   0.0123   0.2627   0.0034   0
1214.197   0.0385   0.2652   0.0021   0
1214.257   0.0657   0.2676   0.0011   0
1214.317   0.1201   0.2730   0.0004   0
1214.377   0.0061   0.2623   0.0001   0
1214.437   0.0893   0.2699   0.0000   0
1214.496   0.1436   0.2750   0.0000   0
1214.556   0.1691   0.2772   0.0000   0
1214.616   0.2497   0.2839   0.0000   0
1214.676   0.5430   0.3065   -0.0000   0
1214.736   0.9691   0.3362   0.0000   0
1214.796   3.2278   0.4544   -0.0000   0
1214.855   9.4370   0.6591   -0.0000   0
1214.915   19.0028   0.8704   -0.0000   0
1214.975   30.8103   1.0667   -0.0000   0
1215.035   45.3578   1.2626   -0.0000   0
1215.095   64.9900   1.4828   -0.0000   0
1215.155   87.2552   1.6948   -0.0000   0
1215.214   100.6585   1.8089   -0.0000   0
1215.274   118.4477   1.9503   -0.0000   0
1215.334   134.7321   2.0703   -0.0000   0
1215.394   152.9666   2.1966   -0.0000   0
1215.454   162.3076   2.2581   -0.0000   0
1215.513   171.0130   2.3137   -0.0000   0
1215.573   171.7909   2.3184   0.0000   0
1215.633   173.9009   2.3311   -0.0000   0
1215.693   169.9329   2.3054   -0.0000   0
1215.753   161.5128   2.2509   -0.0000   0
1215.812   153.8922   2.2000   -0.0000   0
1215.872   145.4772   2.1424   -0.0000   0
1215.932   128.1478   2.0191   -0.0000   0
1215.992   109.8133   1.8792   -0.0000   0
1216.052   92.8949   1.7651   -0.0000   0
1216.112   75.1371   1.6134   0.0000   0
1216.171   50.2888   1.3436   -0.0000   0
1216.231   33.3375   1.1203   -0.0000   1
1216.291   25.5513   0.9977   -0.0000   1
1216.351   16.5862   0.8348   -0.0000   1
1216.411   6.8111   0.5830   -0.0000   1
1216.471   1.8186   0.3803   -0.0000   1
1216.530   0.3013   0.2860   -0.0000   1
1216.590   0.0931   0.2493   -0.0000   1
1216.650   0.1647   0.2737   -0.0000   1
1216.710   0.1212   0.2695   -0.0000   1
1216.770   0.0424   0.2619   -0.0000   1
1216.829   0.0452   0.2620   -0.0000   1
1216.889   0.0198   0.2592   -0.0000   1
1216.949   0.1016   0.2672   -0.0000   1
1217.009   -0.0089   0.2562   -0.0000   1
1217.069   -0.0096   0.2562   0.0000   1
1217.129   -0.0093   0.2561   -0.0000   1
1217.188   0.0738   0.2642   -0.0000   1
1217.248   0.0738   0.2641   -0.0000   1
1217.308   -0.0073   0.2559   -0.0000   1
1217.368   0.0745   0.2640   -0.0000   1
1217.428   0.0195   0.2585   -0.0000   1
1217.487   0.0744   0.2638   -0.0000   1
1217.547   0.0192   0.2583   -0.0000   1
1217.607   0.1286   0.2690   -0.0000   1
1217.667   -0.0089   0.2554   -0.0000   1
1217.727   0.0182   0.2581   0.0000   1
1217.787   0.0736   0.2634   -0.0000   1
1217.846   0.0461   0.2607   -0.0000   1
1217.906   -0.0083   0.2551   -0.0000   1
1217.966   -0.0087   0.2550   -0.0000   1
1218.026   -0.0084   0.2549   0.0000   1
1218.086   0.0468   0.2603   0.0000   1
1218.146   0.0743   0.2627   0.0000   1
1218.205   0.0475   0.2602   0.0000   1
1218.265   -0.0078   0.2547   0.0000   1
1218.325   0.0188   0.2573   0.0000   1
1218.385   -0.0088   0.2545   0.0000   1
1218.445   0.0191   0.2572   0.0000   1
1218.504   -0.0082   0.2544   0.0000   1
1218.564   0.0187   0.2570   0.0001   1
1218.624   -0.0087   0.2542   0.0002   1
1218.684   0.0183   0.2569   0.0004   1
1218.744   -0.0083   0.2541   0.0008   1
1218.803   0.0458   0.2595   0.0014   1
1218.863   -0.0091   0.2541   0.0023   1
1218.923   -0.0090   0.2547   0.0037   1
1218.983   -0.0080   0.2546   0.0055   1
1219.043   -0.0070   0.2546   0.0079   1
1219.103   0.0219   0.2575   0.0109   1
1219.162   0.0516   0.2611   0.0145   1
1219.222   0.0223   0.2579   0.0189   1
1219.282   -0.0068   0.2539   0.0239   1
1219.342   0.0228   0.2570   0.0297   1
1219.402   -0.0053   0.2545   0.0361   1
1219.462   0.1100   0.2664   0.0431   1
1219.521   0.0541   0.2603   0.0508   1
1219.581   0.1106   0.2658   0.0591   1
1219.641   0.0828   0.2631   0.0679   1
1219.701   0.2518   0.2778   0.0772   1
1219.761   0.0802   0.2614   0.0869   1
1219.820   0.1342   0.2665   0.0971   1
1219.880   0.2158   0.2742   0.1076   1
1219.940   0.0253   0.2554   0.1184   1
1220.000   0.0798   0.2608   0.1295   1
1220.060   0.2434   0.2766   0.1408   1
1220.120   0.0525   0.2579   0.1523   1
1220.179   0.2432   0.2761   0.1640   1
1220.239   0.1614   0.2682   0.1757   1
1220.299   0.1342   0.2658   0.1875   1
1220.359   0.2429   0.2755   0.1994   1
1220.419   0.1339   0.2656   0.2113   1
1220.479   0.1610   0.2681   0.2232   1
1220.538   0.1061   0.2624   0.2350   1
1220.598   0.1327   0.2650   0.2468   1
1220.658   0.1585   0.2679   0.2585   1
1220.718   0.1306   0.2648   0.2702   1
1220.778   0.2397   0.2749   0.2818   1
1220.837   0.2405   0.2755   0.2932   1
1220.897   0.2402   0.2755   0.3045   1
1220.957   0.1309   0.2648   0.3157   1
1221.017   0.2666   0.2768   0.3268   1
1221.077   0.2926   0.2790   0.3377   1
1221.136   0.3469   0.2838   0.3485   1
1221.196   0.1836   0.2694   0.3591   1
1221.256   0.2922   0.2797   0.3695   1
1221.316   0.4545   0.2926   0.3798   1
1221.376   0.3177   0.2810   0.3899   1
1221.436   0.2362   0.2741   0.3999   1
1221.495   0.2897   0.2789   0.4097   1
1221.555   0.4253   0.2900   0.4193   1
1221.615   0.2095   0.2710   0.4288   1
1221.675   0.4007   0.2873   0.4381   1
1221.735   0.3455   0.2840   0.4472   1
1221.795   0.5350   0.2980   0.4561   1
1221.854   0.1833   0.2688   0.4649   1
1221.914   0.3453   0.2829   0.4735   1
1221.974   0.2923   0.2782   0.4820   0
1222.034   0.4343   0.2906   0.4903   0
1222.094   0.4462   0.2925   0.4984   0
1222.153   0.2815   0.2794   0.5064   0
1222.213   0.6804   0.3126   0.5142   0
1222.273   0.4202   0.2901   0.5219   0
1222.333   0.3378   0.2838   0.5294   0
1222.393   0.3101   0.2819   0.5368   0
1222.453   0.4179   0.2905   0.5440   0
1222.512   0.4606   0.2920   0.5511   0
1222.572   0.3480   0.2823   0.5580   0
1222.632   0.4280   0.2882   0.5648   0
1222.692   0.3739   0.2835   0.5715   0
1222.752   0.4279   0.2883   0.5780   0
1222.811   0.2658   0.2747   0.5844   0
1222.871   0.5080   0.2953   0.5907   0
1222.931   0.3730   0.2840   0.5968   0
1222.991   0.2918   0.2768   0.6029   0
1223.051   0.4262   0.2879   0.6088   0
1223.111   0.7746   0.3142   0.6146   0
1223.170   0.5854   0.3005   0.6203   0
1223.230   0.4503   0.2901   0.6258   0
1223.290   0.3430   0.2811   0.6313   0
1223.350   0.5845   0.3007   0.6366   0
1223.410   0.4240   0.2880   0.6419   0
1223.469   0.5313   0.2959   0.6470   0
1223.529   0.4233   0.2873   0.6521   0
1223.589   0.4236   0.2877   0.6570   0
1223.649   0.4771   0.2919   0.6619   0
1223.709   0.4224   0.2874   0.6666   0
1223.769   0.4491   0.2895   0.6713   0
1223.828   0.5564   0.2970   0.6758   0
1223.888   0.2079   0.2685   0.6803   0
1223.948   0.4224   0.2876   0.6847   0
1224.008   0.3690   0.2822   0.6890   0
1224.068   0.7715   0.3128   0.6933   0
1224.127   0.5303   0.2957   0.6974   0
1224.187   0.3971   0.2852   0.7015   0
1224.247   0.5293   0.2957   0.7055   0
1224.307   0.5569   0.2968   0.7094   0
1224.367   0.4498   0.2895   0.7133   0
1224.427   0.6744   0.3070   0.7171   0
1224.486   0.6371   0.3052   0.7208   0
1224.546   0.5042   0.2946   0.7244   0
1224.606   0.4446   0.2897   0.7280   0
1224.666   0.2726   0.2748   0.7315   0
1224.726   0.4438   0.2892   0.7349   0
1224.786   0.6955   0.3107   0.7383   0
1224.845   0.6273   0.3035   0.7416   0
1224.905   0.8027   0.3156   0.7449   0
1224.965   0.5543   0.2967   0.7481   1
1225.025   0.7146   0.3081   0.7513   1
1225.085   0.5797   0.2982   0.7544   1
1225.144   0.5526   0.2960   0.7574   1
1225.204   0.4198   0.2858   0.7604   1
1225.264   0.4472   0.2878   0.7633   1
1225.324   0.5538   0.2965   0.7662   1
1225.384   0.4474   0.2863   0.7690   1
1225.443   0.5807   0.2979   0.7718   1
1225.503   0.9536   0.3253   0.7745   1
1225.563   0.3679   0.2797   0.7772   1
1225.623   0.4753   0.2899   0.7799   1
1225.683   0.5024   0.2904   0.7825   1
1225.743   0.4490   0.2873   0.7850   1
1225.802   0.8747   0.3191   0.7875   1
1225.862   1.1151   0.3352   0.7900   1
1225.922   0.7158   0.3080   0.7924   1
1225.982   0.5297   0.2932   0.7948   1
1226.042   0.5833   0.2976   0.7971   1
1226.102   0.9038   0.3205   0.7995   1
1226.161   0.6887   0.3049   0.8017   1
1226.221   0.8729   0.3184   0.8040   1
1226.281   0.7935   0.3133   0.8062   1
1226.341   0.5265   0.2918   0.8083   1
1226.401   0.5799   0.2970   0.8104   1
1226.460   0.6851   0.3056   0.8125   1
1226.520   0.7382   0.3079   0.8146   1
1226.580   0.5526   0.2944   0.8166   1
1226.640   0.4206   0.2832   0.8186   1
1226.700   0.4213   0.2835   0.8206   0
1226.760   0.7657   0.3107   0.8225   0
1226.819   0.7121   0.3062   0.8244   0
1226.879   0.7128   0.3057   0.8263   0
1226.939   0.6864   0.3048   0.8281   0
1226.999   0.7660   0.3092   0.8299   0
1227.059   0.5005   0.2902   0.8317   0
1227.119   0.5532   0.2938   0.8335   0
1227.178   0.5798   0.2958   0.8352   0
1227.238   0.7675   0.3099   0.8369   0
1227.298   0.5182   0.2934   0.8386   0
1227.358   0.5244   0.2943   0.8403   0
1227.418   0.5867   0.2995   0.8419   0
1227.477   0.7463   0.3112   0.8435   0
1227.537   0.4667   0.2884   0.8451   0
1227.597   0.6672   0.3057   0.8467   0
1227.657   0.5638   0.2975   0.8482   0
1227.717   0.5592   0.2972   0.8497   0
1227.776   0.3602   0.2803   0.8512   0
1227.836   0.5870   0.2990   0.8527   0
1227.896   0.4431   0.2872   0.8541   0
1227.956   0.6060   0.2996   0.8556   0
1228.016   0.6328   0.3010   0.8570   0
1228.076   0.5789   0.2972   0.8584   0
1228.135   0.7009   0.3051   0.8597   0
1228.195   0.5517   0.2916   0.8611   0
1228.255   0.4722   0.2869   0.8624   0
1228.315   0.5256   0.2896   0.8637   0
1228.375   0.7112   0.3050   0.8650   0
1228.435   0.5262   0.2909   0.8663   0
1228.494   0.4203   0.2821   0.8676   0
1228.554   0.6312   0.2988   0.8688   0
1228.614   0.5771   0.2945   0.8700   0
1228.674   0.6290   0.2977   0.8712   0
1228.734   0.4713   0.2860   0.8724   0
1228.793   0.5242   0.2894   0.8736   0
1228.853   0.4977   0.2882   0.8747   0
1228.913   0.4443   0.2830   0.8759   0
1228.973   0.5773   0.2934   0.8770   0
1229.033   0.5776   0.2927   0.8781   0
1229.093   0.6572   0.2999   0.8792   0
1229.152   0.5250   0.2887   0.8803   0
1229.212   0.6299   0.2975   0.8814   0
1229.272   0.4967   0.2871   0.8824   0
1229.332   0.7069   0.3038   0.8835   0
1229.392   0.2590   0.2670   0.8845   0
1229.452   0.3112   0.2721   0.8855   0
1229.511   0.4169   0.2806   0.8865   0
1229.571   0.3378   0.2732   0.8875   0
1229.631   0.4430   0.2826   0.8885   0
1229.691   0.3899   0.2779   0.8895   0
1229.751   0.4409   0.2827   0.8904   0
1229.810   0.5215   0.2887   0.8914   0
1229.870   0.4422   0.2820   0.8923   0
1229.930   0.5201   0.2885   0.8932   0
1229.990   0.4147   0.2805   0.8941   0
1230.050   0.4675   0.2844   0.8950   0
1230.109   0.4161   0.2802   0.8959   0
1230.169   0.2307   0.2641   0.8967   0
1230.229   0.5205   0.2877   0.8976   0
1230.289   0.4932   0.2855   0.8985   0
1230.349   0.4661   0.2837   0.8993   0
1230.409   0.5333   0.2909   0.9001   0
1230.468   0.4597   0.2855   0.9009   0
1230.528   0.4938   0.2874   0.9018   0
1230.588   0.3544   0.2774   0.9026   0
1230.648   0.3791   0.2788   0.9033   0
1230.708   0.2690   0.2691   0.9041   0
1230.768   0.4329   0.2812   0.9049   0
1230.827   0.4049   0.2805   0.9057   0
1230.887   0.3423   0.2730   0.9064   0
1230.947   0.4385   0.2808   0.9072   0
1231.007   0.5939   0.2934   0.9079   0
1231.067   0.4092   0.2781   0.9086   0
1231.126   0.3302   0.2712   0.9093   0
1231.186   0.4637   0.2828   0.9101   0
1231.246   0.2537   0.2651   0.9108   0
1231.306   0.2531   0.2648   0.9114   0
1231.366   0.4109   0.2788   0.9121   0
1231.426   0.4109   0.2781   0.9128   0
1231.485   0.2019   0.2600   0.9135   0
1231.545   0.2552   0.2648   0.9141   0
1231.605   0.2035   0.2600   0.9148   0
1231.665   0.2815   0.2673   0.9154   0
1231.725   0.3600   0.2739   0.9161   0
1231.784   0.3345   0.2717   0.9167   0
1231.844   0.2827   0.2671   0.9173   0
1231.904   0.2827   0.2668   0.9180   0
1231.964   0.2041   0.2596   0.9186   0
1232.024   0.3627   0.2737   0.9192   0
1232.084   0.3630   0.2740   0.9198   0
1232.143   0.3615   0.2735   0.9204   0
1232.203   0.3609   0.2729   0.9210   0
1232.263   0.4140   0.2774   0.9215   0
1232.323   0.2566   0.2643   0.9221   0
1232.383   0.3348   0.2712   0.9227   0
1232.443   0.3092   0.2692   0.9232   0
1232.502   0.4405   0.2801   0.9238   0
1232.562   0.1522   0.2542   0.9244   0
1232.622   0.3619   0.2735   0.9249   0
1232.682   0.3102   0.2690   0.9254   0
1232.742   0.2318   0.2616   0.9260   0
1232.801   0.4251   0.2795   0.9265   0
1232.861   0.4053   0.2782   0.9270   0
1232.921   0.3006   0.2696   0.9275   0
1232.981   0.3270   0.2715   0.9280   0
1233.041   0.1872   0.2590   0.9285   0
1233.100   0.2689   0.2660   0.9290   0
1233.160   0.3796   0.2762   0.9295   0
1233.220   0.2688   0.2666   0.9300   0
1233.280   0.2607   0.2639   0.9305   0
1233.340   0.2309   0.2612   0.9310   0
1233.400   0.3872   0.2742   0.9315   0
1233.459   0.1527   0.2534   0.9319   0
1233.519   0.3604   0.2722   0.9324   0
1233.579   0.4644   0.2806   0.9329   0
1233.639   0.3345   0.2700   0.9333   0
1233.699   0.2819   0.2646   0.9338   0
1233.759   0.2568   0.2624   0.9342   0
1233.818   0.2568   0.2628   0.9347   0
1233.878   0.4401   0.2786   0.9351   0
1233.938   0.2575   0.2632   0.9355   0
1233.998   0.3627   0.2710   0.9360   0
1234.058   0.1539   0.2530   0.9364   0
1234.117   0.3635   0.2723   0.9368   0
1234.177   0.3896   0.2737   0.9372   0
1234.237   0.2329   0.2600   0.9376   0
1234.297   0.4424   0.2782   0.9380   0
1234.357   0.1553   0.2532   0.9384   0
1234.417   0.4163   0.2763   0.9388   0
1234.476   0.2081   0.2581   0.9392   0
1234.536   0.2610   0.2625   0.9396   0
1234.596   0.2862   0.2648   0.9400   0
1234.656   0.3122   0.2667   0.9404   0
1234.716   0.2863   0.2647   0.9408   0
1234.776   0.3118   0.2668   0.9412   0
1234.835   0.3625   0.2714   0.9415   0
1234.895   0.3778   0.2525   0.9419   0
1234.955   0.3362   0.2692   0.9423   0
1235.015   0.1015   0.2473   0.9426   0
1235.075   0.3100   0.2666   0.9430   0
1235.134   0.2841   0.2636   0.9434   0
1235.194   0.2317   0.2589   0.9437   0
1235.254   0.2574   0.2617   0.9441   0
1235.314   0.2569   0.2622   0.9444   0
1235.374   0.3352   0.2685   0.9448   0
1235.433   0.2042   0.2572   0.9451   0
1235.493   0.3336   0.2681   0.9454   0
1235.553   0.3855   0.2725   0.9458   0
1235.613   0.3134   0.2671   0.9461   0
1235.673   0.2650   0.2633   0.9464   0
1235.733   0.2120   0.2588   0.9467   0
1235.792   0.3281   0.2691   0.9471   0
1235.852   0.2704   0.2648   0.9474   0
1235.912   0.4078   0.2766   0.9477   0
1235.972   0.2983   0.2665   0.9480   0
1236.032   0.2160   0.2589   0.9483   0
1236.092   0.2096   0.2573   0.9486   0
1236.151   0.2161   0.2588   0.9489   0
1236.211   0.3002   0.2672   0.9493   0
1236.271   0.4104   0.2768   0.9496   0
1236.331   0.2146   0.2586   0.9499   0
1236.391   0.2693   0.2631   0.9501   0
1236.450   0.1599   0.2522   0.9504   0
1236.510   0.2127   0.2570   0.9507   0
1236.570   0.2336   0.2580   0.9510   0
1236.630   0.1023   0.2460   0.9513   0
1236.690   0.2847   0.2634   0.9516   0
1236.750   0.2581   0.2605   0.9519   0
1236.809   0.2583   0.2605   0.9521   0
1236.869   0.1541   0.2510   0.9524   0
1236.929   0.2577   0.2607   0.9527   0
1236.989   0.4127   0.2739   0.9530   0
1237.049   0.3081   0.2648   0.9532   0
1237.108   0.2037   0.2558   0.9535   0
1237.168   0.2819   0.2628   0.9538   0
1237.228   0.2811   0.2621   0.9540   0
1237.288   0.2808   0.2626   0.9543   0
1237.348   0.2291   0.2575   0.9545   0
1237.408   0.2806   0.2622   0.9548   0
1237.467   0.0980   0.2453   0.9550   0
1237.527   0.2795   0.2617   0.9553   0
1237.587   0.3058   0.2637   0.9555   0
1237.647   0.1248   0.2474   0.9558   0
1237.707   0.3318   0.2665   0.9560   0
1237.766   0.0989   0.2452   0.9563   0
1237.826   0.3326   0.2668   0.9565   0
1237.886   0.3328   0.2665   0.9568   0
1237.946   0.2300   0.2570   0.9570   0
1238.006   0.2566   0.2591   0.9572   0
1238.066   0.3089   0.2644   0.9575   0
1238.125   0.2050   0.2545   0.9577   0
1238.185   0.2059   0.2544   0.9579   0
1238.245   0.2068   0.2548   0.9581   0
1238.305   0.2844   0.2615   0.9584   0
1238.365   0.3878   0.2711   0.9586   0
1238.424   0.3887   0.2708   0.9588   0
1238.484   0.1032   0.2447   0.9590   0
1238.544   0.1029   0.2442   0.9593   0
1238.604   0.1288   0.2472   0.9595   0
1238.664   0.2844   0.2615   0.9597   0
1238.724   0.2840   0.2620   0.9599   0
1238.783   0.2331   0.2563   0.9601   0
1238.843   0.3107   0.2640   0.9603   0
1238.903   0.2963   0.2646   0.9605   0
1238.963   0.3007   0.2654   0.9607   0
1239.023   0.1081   0.2465   0.9609   0
1239.083   0.2672   0.2612   0.9611   0
1239.142   0.4314   0.2757   0.9614   0
1239.202   0.2399   0.2585   0.9616   0
1239.262   0.2891   0.2619   0.9617   0
1239.322   0.3858   0.2695   0.9619   0
1239.382   0.2818   0.2611   0.9621   0
1239.441   0.3079   0.2625   0.9623   0
1239.501   0.2563   0.2581   0.9625   0
1239.561   0.3336   0.2654   0.9627   0
1239.621   0.4114   0.2716   0.9629   0
1239.681   0.2047   0.2536   0.9631   0
1239.740   0.4380   0.2742   0.9633   0
1239.800   0.4379   0.2741   0.9635   0
1239.860   0.3599   0.2674   0.9637   0
1239.920   0.3334   0.2649   0.9638   0
1239.980   0.3078   0.2626   0.9640   0
1240.040   0.2290   0.2555   0.9642   0
1240.099   0.3069   0.2630   0.9644   0
1240.159   0.4103   0.2722   0.9646   0
1240.219   0.3852   0.2690   0.9647   0
1240.279   0.2556   0.2581   0.9649   0
1240.339   0.3586   0.2674   0.9651   0
1240.399   0.2809   0.2599   0.9653   0
1240.458   0.1256   0.2457   0.9654   0
1240.518   0.3064   0.2620   0.9656   0
1240.578   0.2292   0.2554   0.9658   0
1240.638   0.2806   0.2597   0.9659   0
1240.698   0.2808   0.2597   0.9661   0
1240.757   0.1773   0.2503   0.9663   0
1240.817   0.1770   0.2499   0.9664   0
1240.877   0.3582   0.2672   0.9666   0
1240.937   0.2810   0.2598   0.9667   0
1240.997   0.2298   0.2552   0.9669   0
1241.057   0.2821   0.2596   0.9671   0
1241.116   0.1792   0.2501   0.9672   0
1241.176   0.3079   0.2618   0.9674   0
1241.236   0.3692   0.2682   0.9675   0
1241.296   0.2986   0.2635   0.9677   0
1241.356   0.3007   0.2629   0.9678   0
1241.416   0.6520   0.2928   0.9680   0
1241.475   0.3227   0.2644   0.9681   0
1241.535   0.4572   0.2765   0.9683   0
1241.595   0.4782   0.2780   0.9684   0
1241.655   0.4449   0.2742   0.9686   0
1241.715   0.2811   0.2591   0.9687   0
1241.774   0.6423   0.2890   0.9689   0
1241.834   0.5388   0.2813   0.9690   0
1241.894   0.4358   0.2729   0.9692   0
1241.954   0.4360   0.2727   0.9693   0
1242.014   0.4863   0.2763   0.9695   0
1242.073   0.3823   0.2674   0.9696   0
1242.133   0.5358   0.2803   0.9697   0
1242.193   0.5099   0.2784   0.9699   0
1242.253   0.4594   0.2736   0.9700   0
1242.313   0.3815   0.2674   0.9702   0
1242.373   0.5368   0.2801   0.9703   0
1242.432   0.7682   0.2987   0.9704   0
1242.492   0.5884   0.2843   0.9706   0
1242.552   0.5114   0.2782   0.9707   0
1242.612   0.4347   0.2724   0.9708   0
1242.672   0.5375   0.2797   0.9710   0
1242.732   0.6901   0.2926   0.9711   0
1242.791   0.8438   0.3039   0.9712   0
1242.851   0.5363   0.2808   0.9713   0
1242.911   0.6404   0.2890   0.9715   0
1242.971   0.7693   0.2980   0.9716   1
1243.031   0.4860   0.2767   0.9717   1
1243.090   0.4610   0.2736   0.9719   1
1243.150   0.6401   0.2886   0.9720   1
1243.210   0.6654   0.2904   0.9721   1
1243.270   0.8704   0.3048   0.9722   1
1243.330   0.8972   0.3064   0.9723   1
1243.390   0.7159   0.2933   0.9725   1
1243.449   0.8189   0.3003   0.9726   1
1243.509   0.8450   0.3028   0.9727   1
1243.569   0.6934   0.2930   0.9728   1
1243.629   0.8467   0.3042   0.9729   1
1243.689   0.8465   0.3039   0.9731   1
1243.748   1.0024   0.3142   0.9732   1
1243.808   0.8220   0.3011   0.9733   1
1243.868   0.8725   0.3058   0.9734   1
1243.928   0.9475   0.3095   0.9735   1
1243.988   1.1510   0.3232   0.9736   1
1244.048   0.7672   0.2965   0.9738   1
1244.107   0.5303   0.2804   0.9739   1
1244.167   0.8389   0.3052   0.9740   1
1244.227   0.8407   0.3063   0.9741   1
1244.287   0.9641   0.3132   0.9742   1
1244.347   0.9892   0.3151   0.9743   1
1244.406   0.5581   0.2826   0.9744   1
1244.466   0.7687   0.2989   0.9745   1
1244.526   1.0713   0.3225   0.9746   1
1244.586   0.6738   0.2943   0.9747   1
1244.646   0.7053   0.2938   0.9748   1
1244.706   0.6671   0.2918   0.9750   1
1244.765   0.8073   0.3031   0.9751   1
1244.825   0.6722   0.2934   0.9752   1
1244.885   1.0154   0.3161   0.9753   1
1244.945   0.9840   0.3110   0.9754   1
1245.005   0.8414   0.3014   0.9755   1
1245.064   1.0200   0.3146   0.9756   1
1245.124   0.7135   0.2921   0.9757   1
1245.184   0.8160   0.3009   0.9758   1
1245.244   0.8159   0.3001   0.9759   1
1245.304   1.1484   0.3233   0.9760   1
1245.364   1.3540   0.3341   0.9761   1
1245.423   1.2256   0.3277   0.9762   1
1245.483   1.1488   0.3213   0.9763   1
1245.543   1.2001   0.3247   0.9764   1
1245.603   0.9683   0.3107   0.9765   1
1245.663   0.9661   0.3101   0.9766   1
1245.723   1.1963   0.3251   0.9767   1
1245.782   1.2997   0.3312   0.9767   1
1245.842   1.2498   0.3286   0.9768   1
1245.902   1.5550   0.3463   0.9769   1
1245.962   1.2477   0.3286   0.9770   1
1246.022   1.3758   0.3360   0.9771   1
1246.081   0.9158   0.3068   0.9772   1
1246.141   1.0424   0.3137   0.9773   1
1246.201   1.1204   0.3193   0.9774   1
1246.261   0.6595   0.2869   0.9775   1
1246.321   0.8132   0.2996   0.9776   1
1246.380   1.1196   0.3198   0.9777   1
1246.440   0.7618   0.2944   0.9777   1
1246.500   0.9910   0.3100   0.9778   1
1246.560   0.8895   0.3043   0.9779   1
1246.620   1.1715   0.3237   0.9780   1
1246.680   0.8147   0.2990   0.9781   1
1246.740   0.9926   0.3107   0.9782   1
1246.799   0.8137   0.2985   0.9783   1
1246.859   1.0166   0.3115   0.9784   1
1246.919   1.1951   0.3231   0.9784   1
1246.979   0.9379   0.3071   0.9785   1
1247.039   0.9369   0.3080   0.9786   1
1247.098   1.1910   0.3229   0.9787   1
1247.158   0.8854   0.3044   0.9788   1
1247.218   0.9798   0.3098   0.9789   1
1247.278   0.9303   0.3094   0.9789   1
1247.338   0.9651   0.3137   0.9790   1
1247.397   0.9896   0.3141   0.9791   1
1247.457   0.8741   0.3057   0.9792   0
1247.517   1.2076   0.3295   0.9793   0
1247.577   0.9125   0.3105   0.9793   0
1247.637   0.6315   0.2878   0.9794   0
1247.697   0.7827   0.2963   0.9795   0
1247.756   0.7824   0.2969   0.9796   0
1247.816   0.7318   0.2915   0.9796   0
1247.876   1.0411   0.3131   0.9797   0
1247.936   0.7595   0.2942   0.9798   0
1247.996   0.6836   0.2897   0.9799   0
1248.056   0.8871   0.3041   0.9799   0
1248.115   0.8621   0.3029   0.9800   0
1248.175   0.7860   0.2969   0.9801   0
1248.235   0.9125   0.3052   0.9802   0
1248.295   0.7592   0.2941   0.9802   0
1248.355   0.8111   0.2982   0.9803   0
1248.414   0.7342   0.2914   0.9804   0
1248.474   0.5558   0.2791   0.9805   0
1248.534   0.6560   0.2873   0.9805   0
1248.594   0.6829   0.2886   0.9806   0
1248.654   0.7606   0.2949   0.9807   0
1248.714   0.8618   0.3011   0.9808   0
1248.773   0.6566   0.2858   0.9808   0
1248.833   0.5303   0.2772   0.9809   0
1248.893   0.7849   0.2956   0.9810   0
1248.953   0.7857   0.2960   0.9810   0
1249.013   0.4798   0.2729   0.9811   0
1249.072   0.5044   0.2742   0.9812   0
1249.132   0.7837   0.2956   0.9812   0
1249.192   0.5556   0.2781   0.9813   0
1249.252   0.9375   0.3067   0.9814   0
1249.312   0.6050   0.2830   0.9814   0
1249.372   0.5033   0.2747   0.9815   0
1249.431   0.6320   0.2834   0.9816   0
1249.491   0.6324   0.2846   0.9816   0
1249.551   0.7094   0.2900   0.9817   0
1249.611   0.6723   0.2876   0.9818   0
1249.671   0.7433   0.2953   0.9818   0
1249.730   1.1017   0.3212   0.9819   0
1249.790   0.8537   0.3031   0.9820   0
1249.850   0.9825   0.3130   0.9820   0
1249.910   0.8022   0.2998   0.9821   0
1249.970   0.8866   0.3054   0.9822   0
1250.030   0.9692   0.3113   0.9822   0
1250.089   0.8362   0.3001   0.9823   0
1250.149   0.8105   0.2970   0.9823   0
1250.209   1.0889   0.3163   0.9824   0
1250.269   1.0901   0.3156   0.9825   0
1250.329   0.8363   0.2995   0.9825   0
1250.388   0.6831   0.2888   0.9826   0
1250.448   0.4803   0.2721   0.9827   0
1250.508   0.3779   0.2632   0.9827   0
1250.568   0.6321   0.2832   0.9828   0
1250.628   0.7340   0.2903   0.9828   0
1250.688   0.8864   0.3031   0.9829   0
1250.747   0.7335   0.2904   0.9830   0
1250.807   0.9125   0.3044   0.9830   0
1250.867   1.2176   0.3241   0.9831   0
1250.927   1.0148   0.3117   0.9831   0
1250.987   1.1938   0.3211   0.9832   0
1251.047   0.6609   0.2862   0.9832   0
1251.106   0.7368   0.2924   0.9833   0
1251.166   0.7879   0.2951   0.9834   0
1251.226   0.9665   0.3065   0.9834   0
1251.286   1.1963   0.3225   0.9835   0
1251.346   0.7860   0.2938   0.9835   0
1251.405   0.8384   0.2985   0.9836   0
1251.465   0.8118   0.2969   0.9836   0
1251.525   0.8622   0.2997   0.9837   0
1251.585   1.1420   0.3187   0.9838   0
1251.645   0.7603   0.2927   0.9838   0
1251.704   0.7603   0.2915   0.9839   0
1251.764   0.6849   0.2869   0.9839   0
1251.824   0.6336   0.2842   0.9840   0
1251.884   0.6837   0.2880   0.9840   0
1251.944   0.6572   0.2847   0.9841   0
1252.004   0.6823   0.2877   0.9841   0
1252.063   0.7340   0.2913   0.9842   0
1252.123   0.6834   0.2873   0.9842   0
1252.183   0.7846   0.2956   0.9843   0
1252.243   0.7849   0.2944   0.9843   0
1252.303   0.6578   0.2848   0.9844   0
1252.363   0.3019   0.2560   0.9844   0
1252.422   0.3028   0.2563   0.9845   0
1252.482   0.3121   0.2580   0.9846   0
1252.542   0.4519   0.2712   0.9846   0
1252.602   0.5609   0.2811   0.9847   0
1252.662   0.4246   0.2681   0.9847   0
1252.721   0.5305   0.2771   0.9848   0
1252.781   0.5628   0.2812   0.9848   0
1252.841   0.5589   0.2796   0.9849   0
1252.901   0.5028   0.2750   0.9849   0
1252.961   0.5825   0.2823   0.9850   0
1253.021   0.5831   0.2811   0.9850   0
1253.080   0.6647   0.2885   0.9850   0
1253.140   0.9299   0.3084   0.9851   0
1253.200   0.8466   0.2802   0.9851   0
1253.260   0.9559   0.3098   0.9852   0
1253.320   0.8860   0.3019   0.9852   0
1253.380   0.9108   0.3038   0.9853   0
1253.439   0.6077   0.2811   0.9853   0
1253.499   0.5825   0.2792   0.9854   0
1253.559   0.5326   0.2742   0.9854   0
1253.619   0.8122   0.2964   0.9855   0
1253.679   0.5583   0.2770   0.9855   0
1253.738   0.2778   0.2527   0.9856   0
1253.798   0.3539   0.2600   0.9856   0
1253.858   0.4815   0.2694   0.9857   0
1253.918   0.2780   0.2537   0.9857   0
1253.978   0.5574   0.2766   0.9858   0
1254.037   0.7361   0.2907   0.9858   0
1254.097   0.7358   0.2906   0.9858   0
1254.157   0.6345   0.2833   0.9859   0
1254.217   0.7367   0.2890   0.9859   0
1254.277   0.9654   0.3064   0.9860   0
1254.337   0.6604   0.2849   0.9860   0
1254.396   0.5336   0.2743   0.9861   0
1254.456   0.5073   0.2728   0.9861   0
1254.516   0.5826   0.2782   0.9861   0
1254.576   0.7352   0.2899   0.9862   0
1254.636   0.6080   0.2812   0.9862   0
1254.696   0.8371   0.2977   0.9863   0
1254.755   0.7106   0.2877   0.9863   0
1254.815   0.7099   0.2877   0.9864   0
1254.875   0.5587   0.2766   0.9864   0
1254.935   0.6349   0.2823   0.9864   0
1254.995   0.8635   0.2974   0.9865   0
1255.054   0.6095   0.2807   0.9865   0
1255.114   0.5328   0.2749   0.9866   0
1255.174   0.6590   0.2839   0.9866   0
1255.234   0.5581   0.2758   0.9867   0
1255.294   0.5576   0.2761   0.9867   0
1255.354   0.8127   0.2949   0.9867   0
1255.413   0.2519   0.2502   0.9868   0
1255.473   0.2280   0.2471   0.9868   0
1255.533   0.2030   0.2454   0.9869   0
1255.593   0.0759   0.2329   0.9869   0
1255.653   0.2633   0.2525   0.9869   0
1255.712   0.2121   0.2476   0.9870   0
1255.772   0.2120   0.2470   0.9870   0
1255.832   0.1585   0.2427   0.9871   0
1255.892   0.2111   0.2475   0.9871   0
1255.952   0.3771   0.2637   0.9871   0
1256.012   0.2119   0.2479   0.9872   0
1256.071   0.4420   0.2675   0.9872   0
1256.131   0.2286   0.2479   0.9872   0
1256.191   0.3812   0.2621   0.9873   0
1256.251   0.6362   0.2817   0.9873   0
1256.311   0.6870   0.2857   0.9874   0
1256.370   0.7126   0.2884   0.9874   0
1256.430   0.7889   0.2912   0.9874   0
1256.490   0.5842   0.2784   0.9875   0
1256.550   0.6096   0.2796   0.9875   0
1256.610   0.8146   0.2949   0.9876   0
1256.670   0.8390   0.2966   0.9876   0
1256.729   0.7873   0.2926   0.9876   0
1256.789   0.8903   0.3001   0.9877   0
1256.849   0.6861   0.2861   0.9877   0
1256.909   0.4047   0.2628   0.9877   0
1256.969   0.7360   0.2884   0.9878   0
1257.028   0.8890   0.3003   0.9878   0
1257.088   0.7367   0.2896   0.9878   0
1257.148   0.6338   0.2816   0.9879   0
1257.208   0.9401   0.3042   0.9879   0
1257.268   1.0429   0.3098   0.9879   0
1257.328   1.0687   0.3117   0.9880   0
1257.387   0.7373   0.2894   0.9880   0
1257.447   0.7111   0.2867   0.9881   0
1257.507   0.5322   0.2728   0.9881   0
1257.567   0.7617   0.2904   0.9881   0
1257.627   0.6604   0.2831   0.9882   0
1257.687   0.6602   0.2824   0.9882   0
1257.746   0.6354   0.2819   0.9882   0
1257.806   0.7638   0.2918   0.9883   0
1257.866   0.8152   0.2946   0.9883   0
1257.926   0.6367   0.2816   0.9883   0
1257.986   0.5142   0.2718   0.9884   0
1258.045   0.7163   0.2889   0.9884   0
1258.105   0.8275   0.2987   0.9884   0
1258.165   0.4783   0.2713   0.9885   0
1258.225   0.7473   0.2914   0.9885   0
1258.285   0.5829   0.2806   0.9885   0
1258.344   0.6173   0.2819   0.9886   0
1258.404   0.9286   0.3059   0.9886   0
1258.464   0.6669   0.2841   0.9886   0
1258.524   0.6849   0.2858   0.9887   0
1258.584   0.6339   0.2803   0.9887   0
1258.644   0.5064   0.2714   0.9887   0
1258.703   0.5574   0.2761   0.9887   0
1258.763   0.6352   0.2812   0.9888   0
1258.823   1.0455   0.3108   0.9888   0
1258.883   1.0464   0.3088   0.9888   0
1258.943   0.6618   0.2825   0.9889   0
1259.003   0.7125   0.2870   0.9889   0
1259.062   0.7122   0.2865   0.9889   0
1259.122   0.6108   0.2797   0.9890   0
1259.182   0.7649   0.2905   0.9890   0
1259.242   0.6884   0.2842   0.9890   0
1259.302   0.4571   0.2667   0.9891   0
1259.361   0.4318   0.2650   0.9891   0
1259.421   0.2269   0.2463   0.9891   0
1259.481   0.1506   0.2387   0.9892   0
1259.541   0.2786   0.2516   0.9892   0
1259.601   0.3803   0.2602   0.9892   0
1259.661   0.4053   0.2625   0.9892   0
1259.720   0.3030   0.2525   0.9893   0
1259.780   0.5588   0.2740   0.9893   0
1259.840   0.5843   0.2761   0.9893   0
1259.900   0.2522   0.2489   0.9894   0
1259.960   0.0731   0.2309   0.9894   0
1260.020   0.3543   0.2575   0.9894   0
1260.079   0.3808   0.2603   0.9894   0
1260.139   0.1243   0.2362   0.9895   0
1260.199   0.0477   0.2282   0.9895   0
1260.259   0.0460   0.2282   0.9895   0
1260.319   0.0208   0.2254   0.9896   0
1260.378   0.0462   0.2282   0.9896   0
1260.438   0.0203   0.2254   0.9896   0
1260.498   -0.0047   0.2227   0.9896   0
1260.558   -0.0041   0.2226   0.9897   0
1260.618   0.0722   0.2308   0.9897   0
1260.677   0.0466   0.2280   0.9897   0
1260.737   0.0969   0.2333   0.9898   0
1260.797   0.0972   0.2332   0.9898   0
1260.857   0.0732   0.2311   0.9898   0
1260.917   0.1291   0.2375   0.9898   0
1260.977   0.1831   0.2430   0.9899   0
1261.036   0.3717   0.2605   0.9899   0
1261.096   0.3449   0.2592   0.9899   0
1261.156   0.1565   0.2396   0.9899   0
1261.216   0.0779   0.2323   0.9900   0
1261.276   0.2590   0.2484   0.9900   0
1261.336   0.0758   0.2304   0.9900   0
1261.395   0.0775   0.2312   0.9901   0
1261.455   0.1328   0.2381   0.9901   0
1261.515   0.0788   0.2324   0.9901   0
1261.575   0.1061   0.2353   0.9901   0
1261.635   0.2146   0.2470   0.9902   0
1261.694   0.2376   0.2479   0.9902   0
1261.754   0.1824   0.2424   0.9902   0
1261.814   0.0487   0.2277   0.9902   0
1261.874   0.0486   0.2277   0.9903   0
1261.934   0.0229   0.2250   0.9903   0
1261.994   0.0226   0.2249   0.9903   0
1262.053   0.0222   0.2249   0.9903   0
1262.113   0.0222   0.2249   0.9904   0
1262.173   -0.0032   0.2222   0.9904   0
1262.233   -0.0032   0.2221   0.9904   0
1262.293   -0.0032   0.2221   0.9904   0
1262.353   -0.0025   0.2221   0.9905   0
1262.412   -0.0026   0.2221   0.9905   0
1262.472   -0.0026   0.2221   0.9905   0
1262.532   -0.0025   0.2221   0.9905   0
1262.592   0.0228   0.2248   0.9906   0
1262.652   -0.0024   0.2220   0.9906   0
1262.711   0.0235   0.2248   0.9906   0
1262.771   -0.0021   0.2220   0.9906   0
1262.831   0.0739   0.2301   0.9907   0
1262.891   0.0739   0.2301   0.9907   0
1262.951   0.1245   0.2353   0.9907   0
1263.010   0.3285   0.2540   0.9907   0
1263.070   0.4045   0.2602   0.9908   0
1263.130   0.6836   0.2828   0.9908   0
1263.190   0.6582   0.2821   0.9908   0
1263.250   0.5550   0.2735   0.9908   0
1263.310   0.8356   0.2947   0.9908   1
1263.369   0.5290   0.2717   0.9909   1
1263.429   0.7570   0.2885   0.9909   1
1263.489   0.8084   0.2924   0.9909   1
1263.549   0.7825   0.2915   0.9909   1
1263.609   0.5035   0.2692   0.9910   1
1263.669   0.7063   0.2844   0.9910   1
1263.728   0.6820   0.2835   0.9910   1
1263.788   0.7838   0.2895   0.9910   1
1263.848   0.7071   0.2861   0.9911   1
1263.908   0.8345   0.2939   0.9911   1
1263.968   1.0360   0.3071   0.9911   1
1264.027   0.6044   0.2780   0.9911   1
1264.087   0.8661   0.2966   0.9911   1
1264.147   0.7678   0.2931   0.9912   1
1264.207   0.6926   0.2876   0.9912   1
1264.267   0.8582   0.3003   0.9912   1
1264.327   0.7764   0.2925   0.9912   1
1264.386   0.7758   0.2933   0.9913   1
1264.446   0.6865   0.2859   0.9913   1
1264.506   0.8148   0.2951   0.9913   1
1264.566   0.7332   0.2871   0.9913   1
1264.626   0.7589   0.2885   0.9913   1
1264.685   0.8611   0.2969   0.9914   1
1264.745   0.8090   0.2914   0.9914   1
1264.805   0.8842   0.2983   0.9914   1
1264.865   0.6054   0.2771   0.9914   1
1264.925   0.6561   0.2820   0.9914   1
1264.985   0.9107   0.2993   0.9915   1
1265.044   0.7599   0.2885   0.9915   1
1265.104   0.8857   0.2988   0.9915   1
1265.164   0.6817   0.2829   0.9915   1
1265.224   0.8843   0.2976   0.9915   1
1265.284   0.8079   0.2934   0.9916   1
1265.344   0.9082   0.3002   0.9916   1
1265.403   0.7817   0.2911   0.9916   1
1265.463   0.8076   0.2918   0.9916   1
1265.523   0.5793   0.2755   0.9917   1
1265.583   0.7307   0.2863   0.9917   1
1265.643   0.5281   0.2714   0.9917   1
1265.702   0.6802   0.2819   0.9917   1
1265.762   0.6548   0.2810   0.9917   1
1265.822   0.7811   0.2886   0.9918   1
1265.882   0.7566   0.2881   0.9918   1
1265.942   0.9588   0.3023   0.9918   1
1266.001   0.6043   0.2769   0.9918   1
1266.061   0.8581   0.2964   0.9918   1
1266.121   0.6052   0.2772   0.9919   1
1266.181   0.8324   0.2942   0.9919   1
1266.241   0.5535   0.2738   0.9919   1
1266.301   0.6539   0.2817   0.9919   1
1266.360   0.3751   0.2581   0.9919   1
1266.420   0.3496   0.2562   0.9919   1
1266.480   0.3786   0.2595   0.9920   1
1266.540   0.3533   0.2603   0.9920   1
1266.600   0.6161   0.2852   0.9920   1
1266.660   0.5571   0.2776   0.9920   1
1266.719   0.3927   0.2655   0.9920   1
1266.779   0.3607   0.2610   0.9921   1
1266.839   0.6787   0.2865   0.9921   1
1266.899   0.6686   0.2840   0.9921   1
1266.959   0.8268   0.2931   0.9921   1
1267.018   0.7006   0.2843   0.9921   1
1267.078   0.7016   0.2850   0.9922   1
1267.138   0.6511   0.2805   0.9922   1
1267.198   0.6775   0.2839   0.9922   1
1267.258   0.8295   0.2938   0.9922   1
1267.318   0.9054   0.2991   0.9922   1
1267.377   0.7812   0.2907   0.9922   1
1267.437   0.9054   0.3000   0.9923   1
1267.497   0.7289   0.2874   0.9923   1
1267.557   0.8546   0.2963   0.9923   1
1267.617   0.9303   0.3004   0.9923   1
1267.677   0.5010   0.2694   0.9923   1
1267.736   0.6773   0.2843   0.9924   1
1267.796   1.0040   0.3058   0.9924   1
1267.856   0.6519   0.2806   0.9924   1
1267.916   0.8785   0.2964   0.9924   1
1267.976   0.6757   0.2827   0.9924   1
1268.035   0.7765   0.2900   0.9924   1
1268.095   0.8515   0.2940   0.9925   1
1268.155   0.9775   0.3051   0.9925   1
1268.215   0.6496   0.2810   0.9925   1
1268.275   1.0024   0.3069   0.9925   1
1268.334   0.7761   0.2900   0.9925   1
1268.394   0.7002   0.2851   0.9925   1
1268.454   0.5743   0.2757   0.9926   1
1268.514   0.7758   0.2907   0.9926   1
1268.574   0.5229   0.2716   0.9926   1
1268.634   0.5464   0.2729   0.9926   1
1268.693   0.5968   0.2767   0.9926   1
1268.753   0.8003   0.2924   0.9926   1
1268.813   0.4543   0.2662   0.9927   1
1268.873   0.5700   0.2776   0.9927   1
1268.933   0.8288   0.3010   0.9927   1
1268.993   0.9369   0.3104   0.9927   1
1269.052   0.6931   0.2925   0.9927   1
1269.112   0.5953   0.2828   0.9927   1
1269.172   0.6917   0.2881   0.9928   1
1269.232   0.8310   0.2967   0.9928   1
1269.292   0.7997   0.2947   0.9928   1
1269.351   0.7010   0.2922   0.9928   1
1269.411   0.5288   0.2777   0.9928   1
1269.471   0.8172   0.3029   0.9928   1
1269.531   0.7247   0.2937   0.9929   1
1269.591   0.7836   0.2967   0.9929   1
1269.651   0.6613   0.2855   0.9929   1
1269.710   0.9645   0.3089   0.9929   1
1269.770   0.7285   0.2898   0.9929   1
1269.830   0.6236   0.2821   0.9929   1
1269.890   0.5995   0.2803   0.9930   1
1269.950   0.6021   0.2812   0.9930   1
1270.009   0.7364   0.2910   0.9930   1
1270.069   0.7658   0.2939   0.9930   1
1270.129   0.7284   0.2896   0.9930   1
1270.189   0.5027   0.2697   0.9930   1
1270.249   0.5232   0.2723   0.9931   1
1270.309   0.6226   0.2801   0.9931   1
1270.368   0.6222   0.2792   0.9931   1
1270.428   0.7483   0.2895   0.9931   1
1270.488   0.5980   0.2787   0.9931   1
1270.548   0.6720   0.2836   0.9931   1
1270.608   0.8233   0.2954   0.9931   1
1270.667   0.5719   0.2751   0.9932   1
1270.727   0.6233   0.2811   0.9932   1
1270.787   0.6988   0.2862   0.9932   1
1270.847   0.8001   0.2942   0.9932   1
1270.907   0.5984   0.2782   0.9932   1
1270.967   0.5726   0.2754   0.9932   1
1271.026   0.9240   0.3030   0.9932   1
1271.086   0.6241   0.2811   0.9933   1
1271.146   0.7847   0.3154   0.9933   1
1271.206   0.6345   0.3257   0.9933   1
1271.266   0.8382   0.3421   0.9933   1
1271.325   0.8723   0.3463   0.9933   1
1271.385   1.2107   0.3725   0.9933   1
1271.445   0.6713   0.3290   0.9933   1
1271.505   0.8438   0.3451   0.9934   1
1271.565   0.7125   0.3094   0.9934   1
1271.625   0.8487   0.3521   0.9934   1
1271.684   0.6375   0.3368   0.9934   1
1271.744   0.4957   0.3239   0.9934   1
1271.804   0.6467   0.3429   0.9934   1
1271.864   0.5628   0.3309   0.9934   1
1271.924   0.9380   0.3594   0.9935   1
1271.984   0.8178   0.3454   0.9935   1
1272.043   0.7207   0.3371   0.9935   1
1272.103   0.6137   0.3249   0.9935   1
1272.163   0.6764   0.3278   0.9935   1
1272.223   0.8086   0.3422   0.9935   1
1272.283   0.7404   0.3371   0.9935   1
1272.342   0.6724   0.3294   0.9936   1
1272.402   0.6377   0.3253   0.9936   1
1272.462   0.6412   0.3282   0.9936   1
1272.522   0.6675   0.3314   0.9936   1
1272.582   0.8116   0.3465   0.9936   1
1272.641   0.3914   0.3069   0.9936   1
1272.701   0.8212   0.3470   0.9936   1
1272.761   0.5405   0.3231   0.9937   1
1272.821   0.5331   0.3214   0.9937   1
1272.881   0.9102   0.3534   0.9937   1
1272.941   0.8412   0.3455   0.9937   1
1273.000   0.6040   0.3230   0.9937   1
1273.060   0.8077   0.3418   0.9937   1
1273.120   0.8062   0.3427   0.9937   1
1273.180   0.6717   0.3306   0.9937   1
1273.240   0.8732   0.3471   0.9938   1
1273.300   0.8388   0.3447   0.9938   1
1273.359   0.8723   0.3482   0.9938   1
1273.419   0.8381   0.3421   0.9938   1
1273.479   0.7052   0.3343   0.9938   1
1273.539   0.6360   0.3274   0.9938   1
1273.599   0.9089   0.3499   0.9938   1
1273.658   1.0760   0.3633   0.9939   1
1273.718   0.8390   0.3446   0.9939   1
1273.778   0.8052   0.3428   0.9939   1
1273.838   0.7359   0.3371   0.9939   1
1273.898   1.0267   0.4313   0.9939   1
1273.958   0.9093   0.4356   0.9939   1
1274.017   1.0279   0.4544   0.9939   1
1274.077   0.9086   0.4529   0.9939   1
1274.137   1.2010   0.4835   0.9940   1
1274.197   0.9313   0.4583   0.9940   1
1274.257   0.9347   0.4488   0.9940   1
1274.317   0.4947   0.3912   0.9940   1
1274.376   0.8481   0.4310   0.9940   1
1274.436   0.5204   0.3936   0.9940   1
1274.496   0.9610   0.4426   0.9940   1
1274.556   0.6691   0.4151   0.9940   1
1274.616   0.6247   0.4145   0.9941   1
1274.675   0.5641   0.4061   0.9941   1
1274.735   0.7559   0.4219   0.9941   1
1274.795   0.7952   0.4222   0.9941   1
1274.855   0.4197   0.3827   0.9941   1
1274.915   1.0936   0.4554   0.9941   1
1274.974   0.7540   0.4220   0.9941   1
1275.034   0.8219   0.4320   0.9941   1
1275.094   0.7791   0.4264   0.9942   1
1275.154   0.7299   0.4243   0.9942   1
1275.214   0.8792   0.4360   0.9942   1
1275.274   0.7042   0.4165   0.9942   1
1275.333   1.0758   0.4492   0.9942   1
1275.393   0.4541   0.3844   0.9942   1
1275.453   0.7610   0.4178   0.9942   1
1275.513   0.8130   0.4250   0.9942   1
1275.573   0.8123   0.4205   0.9942   1
1275.633   1.1761   0.4582   0.9943   1
1275.692   1.0221   0.4453   0.9943   1
1275.752   1.0226   0.4432   0.9943   1
1275.812   1.2777   0.4686   0.9943   1
1275.872   0.6646   0.4108   0.9943   1
1275.932   0.8170   0.4255   0.9943   1
1275.991   0.7174   0.4129   0.9943   1
1276.051   1.0743   0.4519   0.9943   1
1276.111   0.7181   0.4155   0.9943   1
1276.171   0.6654   0.4106   0.9944   1
1276.231   0.8715   0.4311   0.9944   1
1276.291   0.6672   0.5519   0.9944   1
1276.350   0.4131   0.5407   0.9944   1
1276.410   0.9260   0.6168   0.9944   1
1276.470   1.3353   0.6695   0.9944   1
1276.530   0.8250   0.6007   0.9944   1
1276.590   1.3399   0.6723   0.9944   1
1276.649   0.8281   0.6105   0.9944   1
1276.709   0.8345   0.6098   0.9945   1
1276.769   0.6603   0.5883   0.9945   1
1276.829   0.6100   0.5917   0.9945   1
1276.889   0.1435   0.5024   0.9945   1
1276.949   0.6819   0.6389   0.9945   1
1277.008   0.8397   0.6645   0.9945   1
1277.068   1.0333   0.6756   0.9945   1
1277.128   0.6759   0.6014   0.9945   1
1277.188   0.3512   0.5393   0.9945   1
1277.248   0.6450   0.5858   0.9946   1
1277.307   0.7446   0.5990   0.9946   1
1277.367   0.2139   0.5091   0.9946   1
1277.427   1.1554   0.6582   0.9946   1
1277.487   0.9315   0.6250   0.9946   1
1277.547   1.0298   0.6397   0.9946   1
1277.607   1.0282   0.6318   0.9946   1
1277.666   1.1380   0.6504   0.9946   1
1277.726   0.8967   0.6348   0.9946   1
1277.786   1.9621   0.7790   0.9947   1
1277.846   1.1854   0.6765   0.9947   1
1277.906   0.9937   0.6484   0.9947   1
1277.965   1.0233   0.6709   0.9947   1
1278.025   0.5014   0.5728   0.9947   1
1278.085   0.8507   0.6299   0.9947   1
1278.145   0.9823   0.6402   0.9947   1
1278.205   0.2058   0.2750   0.9947   1
1278.265   0.3600   0.2983   0.9947   1
1278.324   0.4659   0.3122   0.9947   1
1278.384   0.3615   0.2965   0.9948   1
1278.444   0.5701   0.3270   0.9948   1
1278.504   0.3094   0.2914   0.9948   1
1278.564   0.5186   0.3212   0.9948   1
1278.624   0.1020   0.2568   0.9948   1
1278.683   0.1535   0.2666   0.9948   1
1278.743   0.2064   0.2763   0.9948   1
1278.803   0.3631   0.3006   0.9948   1
1278.863   0.3627   0.2996   0.9948   1
1278.923   0.2076   0.2757   0.9948   1
1278.982   0.5210   0.3218   0.9949   1
1279.042   0.1558   0.2666   0.9949   1
1279.102   0.1553   0.2497   0.9949   1
1279.162   0.0000   0.0000   0.9949   1
1279.222   0.0000   0.0000   0.9949   1
1279.281   0.0000   0.0000   0.9949   1
1279.341   0.0000   0.0000   0.9949   1
1279.401   0.0000   0.0000   0.9949   1
1279.461   0.0000   0.0000   0.9949   1
1279.521   0.0000   0.0000   0.9949   1
1279.581   0.0000   0.0000   0.9950   1
1279.641   0.0000   0.0000   0.9950   1
1279.700   0.0000   0.0000   0.9950   1
1279.760   0.0000   0.0000   0.9950   1
1279.820   0.0000   0.0000   0.9950   1
1279.880   0.0000   0.0000   0.9950   1
1279.940   0.0000   0.0000   0.9950   1
1279.999   0.0000   0.0000   0.9950   1
1280.059   0.0000   0.0000   0.9950   1
1280.119   0.0000   0.0000   0.9950   1
1280.179   0.0000   0.0000   0.9950   1
1280.239   0.0000   0.0000   0.9951   1
1280.298   0.0000   0.0000   0.9951   1
1280.358   0.0000   0.0000   0.9951   1
1280.418   0.0000   0.0000   0.9951   1
1280.478   0.0000   0.0000   0.9951   1
1280.538   0.0000   0.0000   0.9951   1
1280.598   0.0000   0.0000   0.9951   1
1280.657   0.0000   0.0000   0.9951   1
1280.717   0.0000   0.0000   0.9951   1
1280.777   0.0000   0.0000   0.9951   1
1280.837   0.0000   0.0000   0.9951   1
1280.897   0.0000   0.0000   0.9952   1
1280.957   0.0000   0.0000   0.9952   1
1281.016   0.0000   0.0000   0.9952   1
1281.076   0.0000   0.0000   0.9952   1
1281.136   0.0000   0.0000   0.9952   1
1281.196   0.0000   0.0000   0.9952   1
1281.256   0.0000   0.0000   0.9952   1
1281.315   0.0000   0.0000   0.9952   1
1281.375   0.0000   0.0000   0.9952   1
1281.435   0.0000   0.0000   0.9952   1
1281.495   0.0000   0.0000   0.9952   1
1281.555   0.0000   0.0000   0.9953   1
1281.615   0.0000   0.0000   0.9953   1
1281.674   0.0000   0.0000   0.9953   1
1281.734   0.0000   0.0000   0.9953   1
1281.794   0.0000   0.0000   0.9953   1
1281.854   0.0000   0.0000   0.9953   1
1281.914   0.0000   0.0000   0.9953   1
1281.973   0.0000   0.0000   0.9953   1
1282.033   0.0000   0.0000   0.9953   1
1282.093   0.0000   0.0000   0.9953   1
1282.153   0.0000   0.0000   0.9953   1
1282.213   0.0000   0.0000   0.9953   1
1282.273   0.0000   0.0000   0.9954   1
1282.332   0.0000   0.0000   0.9954   1
1282.392   0.0000   0.0000   0.9954   1
1282.452   0.0000   0.0000   0.9954   1
1282.512   0.0000   0.0000   0.9954   1
1282.572   0.0000   0.0000   0.9954   1
1282.631   0.0000   0.0000   0.9954   1
1282.691   0.0000   0.0000   0.9954   1
1282.751   0.0000   0.0000   0.9954   1
1282.811   0.0000   0.0000   0.9954   1
1282.871   0.0000   0.0000   0.9954   1
1282.931   0.0000   0.0000   0.9954   1
1282.990   0.0000   0.0000   0.9955   1
1283.050   0.0000   0.0000   0.9955   1
1283.110   0.0000   0.0000   0.9955   1
1283.170   0.0000   0.0000   0.9955   1
1283.230   0.0000   0.0000   0.9955   1
1283.289   0.0000   0.0000   0.9955   1
1283.349   0.0000   0.0000   0.9955   1
1283.409   0.0000   0.0000   0.9955   1
1283.469   0.0000   0.0000   0.9955   1
1283.529   0.0000   0.0000   0.9955   1
1283.589   0.0000   0.0000   0.9955   1
1283.648   0.0000   0.0000   0.9955   1
1283.708   0.0000   0.0000   0.9956   1
1283.768   0.0000   0.0000   0.9956   1
1283.828   0.0000   0.0000   0.9956   1
1283.888   0.0000   0.0000   0.9956   1
1283.948   0.0000   0.0000   0.9956   1
1284.007   0.0000   0.0000   0.9956   1
1284.067   0.0000   0.0000   0.9956   1
1284.127   0.0000   0.0000   0.9956   1
1284.187   0.0000   0.0000   0.9956   1
1284.247   0.0000   0.0000   0.9956   1
1284.306   0.0000   0.0000   0.9956   1
1284.366   0.0000   0.0000   0.9956   1
1284.426   0.0000   0.0000   0.9956   1
1284.486   0.0000   0.0000   0.9957   1
1284.546   0.0000   0.0000   0.9957   1
1284.605   0.0000   0.0000   0.9957   1
1284.665   0.0000   0.0000   0.9957   1
1284.725   0.0000   0.0000   0.9957   1
1284.785   0.0000   0.0000   0.9957   1
1284.845   0.0000   0.0000   0.9957   1
1284.905   0.0000   0.0000   0.9957   1
1284.964   0.0000   0.0000   0.9957   1
1285.024   0.0000   0.0000   0.9957   1
1285.084   0.0000   0.0000   0.9957   1
1285.144   0.0000   0.0000   0.9957   1
1285.204   0.0000   0.0000   0.9957   1
1285.264   0.0000   0.0000   0.9957   1
1285.323   0.0000   0.0000   0.9958   1
1285.383   0.0000   0.0000   0.9958   1
1285.443   0.0000   0.0000   0.9958   1
1285.503   0.0000   0.0000   0.9958   1
1285.563   0.0000   0.0000   0.9958   1
1285.622   0.0000   0.0000   0.9958   1
1285.682   0.0000   0.0000   0.9958   1
1285.742   0.0000   0.0000   0.9958   1
1285.802   0.0000   0.0000   0.9958   1
1285.862   0.0000   0.0000   0.9958   1
1285.922   0.0000   0.0000   0.9958   1
1285.981   0.0000   0.0000   0.9958   1
1286.041   0.0000   0.0000   0.9958   1
1286.101   0.0000   0.0000   0.9959   1
1286.161   0.0000   0.0000   0.9959   1
1286.221   0.0000   0.0000   0.9959   1
1286.281   0.0000   0.0000   0.9959   1
1286.340   0.0000   0.0000   0.9959   1
1286.400   0.0000   0.0000   0.9959   1
1286.460   0.0000   0.0000   0.9959   1
1286.520   0.0000   0.0000   0.9959   1
1286.580   0.0000   0.0000   0.9959   1
1286.639   0.0000   0.0000   0.9959   1
1286.699   0.0000   0.0000   0.9959   1
1286.759   0.0000   0.0000   0.9959   1
1286.819   0.0000   0.0000   0.9959   1
1286.879   0.0000   0.0000   0.9959   1
1286.938   0.0000   0.0000   0.9959   1
1286.998   0.0000   0.0000   0.9960   1
1287.058   0.0000   0.0000   0.9960   1
1287.118   0.0000   0.0000   0.9960   1
1287.178   0.0000   0.0000   0.9960   1
1287.238   0.0000   0.0000   0.9960   1
1287.297   0.0000   0.0000   0.9960   1
1287.357   0.0000   0.0000   0.9960   1
1287.417   0.0000   0.0000   0.9960   1
1287.477   0.0000   0.0000   0.9960   1
1287.537   0.0000   0.0000   0.9960   1
1287.597   0.0000   0.0000   0.9960   1
1287.656   0.0000   0.0000   0.9960   1
1287.716   0.0000   0.0000   0.9960   1
1287.776   0.0000   0.0000   0.9960   1
1287.836   0.0000   0.0000   0.9960   1
1287.896   0.2697   0.3373   0.9961   1
1287.955   0.3378   0.3500   0.9961   1
1288.015   0.4740   0.3733   0.9961   1
1288.075   0.6104   0.3940   0.9961   1
1288.135   0.3386   0.3528   0.9961   1
1288.195   0.2707   0.3421   0.9961   1
1288.255   0.6979   0.6262   0.9961   1
1288.314   0.5419   0.6815   0.9961   1
1288.374   0.1331   0.6040   0.9961   1
1288.434   0.9535   0.7481   0.9961   1
1288.494   1.0906   0.7727   0.9961   1
1288.554   0.8177   0.7280   0.9961   1
1288.613   0.8186   0.7230   0.9961   1
1288.673   0.9571   0.7542   0.9961   1
1288.733   0.2708   0.6338   0.9961   1
1288.793   0.8223   0.7346   0.9962   1
1288.853   0.9614   0.7512   0.9962   1
1288.913   0.8246   0.7354   0.9962   1
1288.972   0.4124   0.6626   0.9962   1
1289.032   0.6877   0.7113   0.9962   1
1289.092   0.6878   0.7081   0.9962   1
1289.152   0.8256   0.7316   0.9962   1
1289.212   0.6885   0.7071   0.9962   1
1289.271   0.8268   0.7323   0.9962   1
1289.331   1.1033   0.7657   0.9962   1
1289.391   1.2421   0.7970   0.9962   1
1289.451   0.4146   0.6610   0.9962   1
1289.511   0.0000   0.5778   0.9962   1
1289.571   1.3862   0.8105   0.9962   1
1289.630   0.9675   0.7595   0.9962   1
1289.690   0.6895   0.7106   0.9962   1
1289.750   0.4126   0.6652   0.9963   1
1289.810   0.5522   0.6889   0.9963   1
1289.870   1.8044   0.8745   0.9963   1
1289.929   1.1094   0.7778   0.9963   1
1289.989   0.8315   0.7300   0.9963   1
1290.049   0.9710   0.7569   0.9963   1
1290.109   0.9718   0.7573   0.9963   1
1290.169   0.6932   0.7127   0.9963   1
1290.229   0.5542   0.6904   0.9963   1
1290.288   0.5551   0.6908   0.9963   1
1290.348   1.3933   0.8246   0.9963   1
1290.408   0.6954   0.7001   0.9963   1
1290.468   0.2764   0.6401   0.9963   1
1290.528   0.6969   0.7130   0.9963   1
1290.588   0.2782   0.4304   0.9963   1
1290.647   0.5508   0.6437   0.9963   1
1290.707   0.7583   0.6432   0.9963   1
1290.767   0.7641   0.5149   0.9964   1
1290.827   0.6241   0.4936   0.9964   1
1290.887   0.6946   0.5073   0.9964   1
1290.946   1.2505   0.5675   0.9964   1
1291.006   1.1819   0.5604   0.9964   1
1291.066   0.8340   0.5207   0.9964   1
1291.126   0.7647   0.5157   0.9964   1
1291.186   0.9052   0.5287   0.9964   1
1291.245   1.1150   0.5534   0.9964   1
1291.305   0.8359   0.5222   0.9964   1
1291.365   0.9067   0.5294   0.9964   1
1291.425   0.7669   0.5155   0.9964   1
1291.485   1.0483   0.5462   0.9964   1
1291.545   0.9782   0.5416   0.9964   1
1291.604   1.1887   0.5599   0.9964   1
1291.664   0.9053   0.5312   0.9964   1
1291.724   1.0464   0.5484   0.9964   1
1291.784   0.6267   0.4974   0.9965   1
1291.844   0.6991   0.5104   0.9965   1
1291.904   0.9084   0.5329   0.9965   1
1291.963   1.0493   0.5500   0.9965   1
1292.023   0.6266   0.5004   0.9965   1
1292.083   0.3451   0.4661   0.9965   1
1292.143   0.6973   0.5074   0.9965   1
1292.203   0.4162   0.4719   0.9965   1
1292.262   0.6288   0.5001   0.9965   1
1292.322   0.5578   0.4903   0.9965   1
1292.382   0.6267   0.5008   0.9965   1
1292.442   0.6263   0.5018   0.9965   1
1292.502   0.8397   0.5265   0.9965   1
1292.562   0.5554   0.4928   0.9965   1
1292.621   0.6963   0.5107   0.9965   1
1292.681   0.9116   0.5378   0.9965   1
1292.741   0.8415   0.5268   0.9965   1
1292.801   0.6999   0.5104   0.9965   1
1292.861   1.1284   0.5571   0.9966   1
1292.921   0.4894   0.4874   0.9966   1
1292.980   0.7493   0.4797   0.9966   1
1293.040   0.9385   0.4408   0.9966   1
1293.100   0.6063   0.4097   0.9966   1
1293.160   0.3696   0.3857   0.9966   1
1293.220   0.5587   0.4063   0.9966   1
1293.279   0.7008   0.4187   0.9966   1
1293.339   0.6559   0.4945   0.9966   1
1293.399   0.9897   0.5448   0.9966   1
1293.459   0.6102   0.4768   0.9966   1
1293.519   0.8003   0.4303   0.9966   1
1293.578   0.6602   0.4171   0.9966   1
1293.638   0.6123   0.4124   0.9966   1
1293.698   0.9952   0.4469   0.9966   1
1293.758   1.0937   0.4583   0.9966   1
1293.818   0.6633   0.4184   0.9966   1
1293.878   1.0474   0.4540   0.9966   1
1293.938   0.7607   0.4278   0.9966   1
1293.997   1.1943   0.4682   0.9967   1
1294.057   1.2928   0.4764   0.9967   1
1294.117   0.8128   0.4358   0.9967   1
1294.177   1.2963   0.4779   0.9967   1
1294.237   0.5752   0.4096   0.9967   1
1294.296   0.8172   0.4356   0.9967   1
1294.356   0.6722   0.4221   0.9967   1
1294.416   0.5285   0.4073   0.9967   1
1294.476   0.6746   0.4230   0.9967   1
1294.536   0.7726   0.4318   0.9967   1
1294.595   0.7256   0.4295   0.9967   1
1294.655   1.0672   0.4616   0.9967   1
1294.715   1.0204   0.4593   0.9967   1
1294.775   0.7762   0.4371   0.9967   1
1294.835   0.9719   0.4556   0.9967   1
1294.895   0.9244   0.4506   0.9967   1
1294.954   0.9251   0.4515   0.9967   1
1295.014   1.0242   0.4600   0.9967   1
1295.074   0.5833   0.4181   0.9967   1
1295.134   0.5832   0.4209   0.9967   1
1295.194   1.0264   0.4604   0.9968   1
1295.254   0.9300   0.4551   0.9968   1
1295.313   0.8335   0.4425   0.9968   1
1295.373   0.7856   0.4416   0.9968   1
1295.433   0.4893   0.4110   0.9968   1
1295.493   0.8372   0.4475   0.9968   1
1295.553   0.7387   0.4386   0.9968   1
1295.612   0.9894   0.4611   0.9968   1
1295.672   0.9268   0.4872   0.9968   1
1295.732   0.7349   0.5458   0.9968   1
1295.792   0.8513   0.5687   0.9968   1
1295.852   0.5881   0.3918   0.9968   1
1295.911   0.6642   0.3802   0.9968   1
1295.971   0.7547   0.3893   0.9968   1
1296.031   1.2041   0.4255   0.9968   1
1296.091   0.9434   0.4037   0.9968   1
1296.151   0.5741   0.3705   0.9968   1
1296.211   0.6710   0.3781   0.9968   1
1296.270   1.1627   0.4169   0.9968   1
1296.330   0.7106   0.3814   0.9968   1
1296.390   0.5976   0.3733   0.9968   1
1296.450   0.6358   0.3769   0.9969   1
1296.510   0.9396   0.4000   0.9969   1
1296.570   0.6744   0.3803   0.9969   1
1296.629   0.9413   0.4007   0.9969   1
1296.689   0.7916   0.3907   0.9969   1
1296.749   0.9065   0.4005   0.9969   1
