# Best-fit normalized data and profile from VoigtFit
# column 1 : Wavelength
# column 2 : Normalized flux
# column 3 : Normalized error
# column 4 : Best-fit profile
# column 5 : Pixel mask, 1=included, 0=excluded
1134.615   0.4462   0.7498   0.9966   1
1134.674   1.0520   0.8555   0.9966   1
1134.734   0.5955   0.7786   0.9966   1
1134.794   0.5944   0.7744   0.9966   1
1134.854   0.7404   0.7992   0.9966   1
1134.914   0.1354   0.6884   0.9966   1
1134.973   0.2849   0.7169   0.9966   1
1135.033   0.5845   0.7662   0.9966   1
1135.093   0.5256   0.5377   0.9966   1
1135.153   0.4663   0.5329   0.9966   1
1135.213   0.8279   0.5806   0.9966   1
1135.272   0.5176   0.5403   0.9966   1
1135.332   0.7076   0.5744   0.9966   1
1135.392   0.5970   0.5543   0.9965   1
1135.452   0.2412   0.5006   0.9965   1
1135.512   0.2484   0.5038   0.9965   1
1135.572   0.5921   0.5509   0.9965   1
1135.631   0.5406   0.5353   0.9965   1
1135.691   0.3662   0.5097   0.9965   1
1135.751   0.2144   0.4892   0.9965   1
1135.811   0.2140   0.4885   0.9965   1
1135.871   0.5126   0.5274   0.9965   1
1135.931   0.4356   0.5177   0.9965   1
1135.990   0.1390   0.4747   0.9965   1
1136.050   0.2124   0.4858   0.9965   1
1136.110   0.0650   0.4639   0.9965   1
1136.170   0.0665   0.4632   0.9965   1
1136.230   0.1397   0.4734   0.9965   1
1136.289   0.1381   0.4728   0.9965   1
1136.349   -0.0098   0.4506   0.9965   1
1136.409   -0.0102   0.4500   0.9965   1
1136.469   0.5704   0.5275   0.9965   1
1136.529   0.1340   0.4701   0.9964   1
1136.589   0.2761   0.4897   0.9964   1
1136.648   0.3506   0.4985   0.9964   1
1136.708   0.2876   0.4901   0.9964   1
1136.768   0.2982   0.4938   0.9964   1
1136.828   0.7587   0.5512   0.9964   1
1136.888   0.5169   0.5191   0.9964   1
1136.948   0.2069   0.4768   0.9964   1
1137.007   0.7742   0.5443   0.9964   1
1137.067   0.6268   0.5262   0.9964   1
1137.127   0.8390   0.5509   0.9964   1
1137.187   1.1200   0.5795   0.9964   1
1137.247   0.6954   0.5361   0.9964   1
1137.306   1.0544   0.5723   0.9964   1
1137.366   0.4862   0.5071   0.9964   1
1137.426   1.0876   0.5051   0.9964   1
1137.486   1.4306   0.4988   0.9964   1
1137.546   0.7148   0.4370   0.9964   1
1137.605   1.0594   0.4687   0.9964   1
1137.665   1.0709   0.4707   0.9963   1
1137.725   1.0641   0.4681   0.9963   1
1137.785   0.8565   0.4510   0.9963   1
1137.845   1.3216   0.4870   0.9963   1
1137.905   0.6660   0.4295   0.9963   1
1137.964   1.0412   0.4688   0.9963   1
1138.024   0.8668   0.4571   0.9963   1
1138.084   1.1879   0.4866   0.9963   1
1138.144   0.9662   0.4635   0.9963   1
1138.204   1.1472   0.4779   0.9963   1
1138.264   0.9063   0.4578   0.9963   1
1138.323   1.0516   0.4691   0.9963   1
1138.383   1.1302   0.4701   0.9963   1
1138.443   0.9585   0.4544   0.9963   1
1138.503   0.9726   0.4558   0.9963   1
1138.563   0.7715   0.4368   0.9963   1
1138.622   0.7504   0.4340   0.9963   1
1138.682   0.9572   0.4481   0.9963   1
1138.742   1.0448   0.4564   0.9962   0
1138.802   1.0420   0.4559   0.9962   0
1138.862   1.5422   0.4938   0.9962   0
1138.922   0.7175   0.4269   0.9962   0
1138.981   0.7169   0.4258   0.9962   0
1139.041   0.6252   0.4165   0.9962   0
1139.101   0.8952   0.4390   0.9962   0
1139.161   1.0822   0.4552   0.9962   0
1139.221   1.1517   0.4635   0.9962   0
1139.280   0.9865   0.4528   0.9962   0
1139.340   0.8522   0.4390   0.9962   0
1139.400   0.8463   0.4379   0.9962   0
1139.460   0.7044   0.4249   0.9962   0
1139.520   0.8430   0.4378   0.9962   0
1139.580   1.1261   0.4622   0.9962   0
1139.639   0.8291   0.4328   0.9962   0
1139.699   0.6322   0.4124   0.9962   0
1139.759   0.9306   0.4392   0.9961   0
1139.819   0.7519   0.4230   0.9961   0
1139.879   0.7511   0.4229   0.9961   0
1139.938   1.0143   0.4454   0.9961   0
1139.998   1.1492   0.4558   0.9961   0
1140.058   0.8804   0.4325   0.9961   0
1140.118   0.7905   0.4239   0.9961   0
1140.178   0.7888   0.4228   0.9961   0
1140.238   0.2162   0.3670   0.9961   0
1140.297   0.8336   0.4289   0.9961   0
1140.357   0.7871   0.3728   0.9961   0
1140.417   0.8055   0.3755   0.9961   0
1140.477   0.6869   0.3645   0.9961   0
1140.537   0.6693   0.3609   0.9961   0
1140.596   0.9836   0.3846   0.9961   0
1140.656   0.6614   0.3586   0.9961   0
1140.716   0.8638   0.3757   0.9960   0
1140.776   0.6240   0.3511   0.9960   0
1140.836   0.7192   0.3573   0.9960   0
1140.896   0.5540   0.3445   0.9960   0
1140.955   0.8500   0.3678   0.9960   0
1141.015   0.6185   0.3492   0.9960   0
1141.075   0.5201   0.3408   0.9960   0
1141.135   0.8554   0.3676   0.9960   0
1141.195   1.0076   0.3799   0.9960   0
1141.255   0.7815   0.3633   0.9960   0
1141.314   1.0492   0.3838   0.9960   0
1141.374   0.8919   0.3701   0.9960   0
1141.434   1.2344   0.3904   0.9960   0
1141.494   0.8078   0.3619   0.9960   0
1141.554   0.7753   0.3597   0.9960   0
1141.613   0.9697   0.3729   0.9960   0
1141.673   0.8374   0.3624   0.9959   0
1141.733   1.0990   0.3827   0.9959   0
1141.793   0.6800   0.3504   0.9959   0
1141.853   0.7877   0.3590   0.9959   0
1141.912   0.7260   0.3545   0.9959   0
1141.972   0.7709   0.3597   0.9959   0
1142.032   0.9386   0.3716   0.9959   0
1142.092   0.7658   0.3576   0.9959   0
1142.152   0.7185   0.3530   0.9959   0
1142.212   0.8406   0.3605   0.9959   0
1142.271   1.1153   0.3808   0.9959   0
1142.331   1.0428   0.3743   0.9959   0
1142.391   0.5964   0.3396   0.9959   0
1142.451   0.8811   0.3626   0.9959   0
1142.511   0.6901   0.3472   0.9959   0
1142.571   0.8508   0.3589   0.9958   0
1142.630   1.0904   0.3489   0.9958   0
1142.690   0.8268   0.3587   0.9958   0
1142.750   0.8942   0.3621   0.9958   0
1142.810   0.6063   0.3393   0.9958   0
1142.870   0.8260   0.3568   0.9958   0
1142.929   0.5626   0.3349   0.9958   0
1142.989   0.7795   0.3522   0.9958   0
1143.049   0.5572   0.3337   0.9958   0
1143.109   0.7128   0.3463   0.9958   0
1143.169   0.6023   0.3380   0.9958   0
1143.229   0.4832   0.3300   0.9958   0
1143.288   0.7629   0.3543   0.9958   0
1143.348   0.8669   0.3631   0.9958   0
1143.408   0.6222   0.3401   0.9958   0
1143.468   0.7174   0.3484   0.9957   0
1143.528   0.8808   0.3633   0.9957   0
1143.588   0.7992   0.3578   0.9957   0
1143.647   0.4807   0.3297   0.9957   0
1143.707   0.7687   0.3530   0.9957   0
1143.767   0.7227   0.3481   0.9957   0
1143.827   0.7479   0.3479   0.9957   0
1143.887   0.4186   0.3210   0.9957   0
1143.946   0.9352   0.3639   0.9957   0
1144.006   1.0279   0.3708   0.9957   0
1144.066   0.8686   0.3537   0.9957   0
1144.126   0.8860   0.3531   0.9957   0
1144.186   0.8552   0.3515   0.9957   0
1144.245   0.7963   0.3479   0.9957   0
1144.305   1.0242   0.3660   0.9956   0
1144.365   0.7255   0.3435   0.9956   0
1144.425   0.7597   0.3473   0.9956   0
1144.485   0.9460   0.3591   0.9956   0
1144.545   0.7128   0.3412   0.9956   0
1144.604   0.4246   0.3148   0.9956   0
1144.664   0.6097   0.3313   0.9956   0
1144.724   0.4312   0.3168   0.9956   0
1144.784   0.2763   0.3031   0.9956   0
1144.844   0.1199   0.2880   0.9956   0
1144.904   0.3387   0.3079   0.9956   0
1144.963   0.2400   0.2983   0.9956   0
1145.023   0.2992   0.3030   0.9956   0
1145.083   0.4802   0.3185   0.9956   0
1145.143   0.5711   0.3263   0.9955   0
1145.203   0.6622   0.3327   0.9955   0
1145.262   0.5117   0.3190   0.9955   0
1145.322   0.5728   0.3246   0.9955   0
1145.382   0.6930   0.3355   0.9955   0
1145.442   0.7231   0.3377   0.9955   0
1145.502   0.7834   0.3412   0.9955   0
1145.562   0.6062   0.3280   0.9955   0
1145.621   0.6688   0.3326   0.9955   0
1145.681   0.7938   0.3433   0.9955   0
1145.741   0.5790   0.3251   0.9955   0
1145.801   0.7542   0.3378   0.9955   0
1145.861   1.0516   0.3608   0.9955   0
1145.921   0.9270   0.3501   0.9954   0
1145.980   0.5960   0.3252   0.9954   0
1146.040   0.7457   0.3368   0.9954   0
1146.100   0.9837   0.3544   0.9954   0
1146.160   0.6245   0.3269   0.9954   0
1146.220   0.3844   0.3060   0.9954   0
1146.279   0.4740   0.3141   0.9954   0
1146.339   0.3597   0.3050   0.9954   0
1146.399   0.3111   0.3020   0.9954   0
1146.459   0.3273   0.3043   0.9954   0
1146.519   0.2629   0.2986   0.9954   0
1146.578   0.1612   0.2872   0.9954   0
1146.638   0.4773   0.3169   0.9954   0
1146.698   0.3419   0.3038   0.9953   0
1146.758   0.5594   0.3228   0.9953   0
1146.818   0.2981   0.2973   0.9953   0
1146.878   0.3228   0.2989   0.9953   0
1146.937   0.3819   0.3042   0.9953   0
1146.997   0.3220   0.2989   0.9953   0
1147.057   0.6478   0.3266   0.9953   0
1147.117   0.7659   0.3344   0.9953   0
1147.177   0.7727   0.3351   0.9953   0
1147.237   0.7557   0.3360   0.9953   0
1147.296   0.6430   0.3271   0.9953   0
1147.356   0.9182   0.3484   0.9953   0
1147.416   0.8808   0.3440   0.9952   0
1147.476   1.3169   0.3731   0.9952   0
1147.536   0.9761   0.3493   0.9952   1
1147.595   0.7625   0.3323   0.9952   1
1147.655   0.7032   0.3284   0.9952   1
1147.715   0.8494   0.3388   0.9952   1
1147.775   0.7311   0.3284   0.9952   1
1147.835   1.1139   0.3566   0.9952   1
1147.895   0.6422   0.3216   0.9952   1
1147.954   0.9068   0.3434   0.9952   1
1148.014   1.1121   0.3568   0.9952   1
1148.074   0.6713   0.3244   0.9952   1
1148.134   1.3763   0.3738   0.9951   1
1148.194   1.1692   0.3604   0.9951   1
1148.253   0.8448   0.3378   0.9951   1
1148.313   1.0225   0.3498   0.9951   1
1148.373   0.7860   0.3315   0.9951   1
1148.433   0.9906   0.3473   0.9951   1
1148.493   1.0787   0.3521   0.9951   1
1148.553   1.0484   0.3497   0.9951   1
1148.612   1.1928   0.3594   0.9951   1
1148.672   0.8504   0.3359   0.9951   1
1148.732   0.8168   0.3365   0.9951   1
1148.792   1.0076   0.3521   0.9951   1
1148.852   0.8591   0.3393   0.9950   1
1148.911   0.9512   0.3461   0.9950   1
1148.971   0.7951   0.3335   0.9950   1
1149.031   0.9142   0.3432   0.9950   1
1149.091   0.8816   0.3400   0.9950   1
1149.151   0.9715   0.3428   0.9950   1
1149.211   0.7511   0.3258   0.9950   1
1149.270   0.7795   0.3294   0.9950   1
1149.330   1.0405   0.3460   0.9950   1
1149.390   1.2429   0.3604   0.9950   1
1149.450   0.7775   0.3286   0.9950   1
1149.510   0.8635   0.3339   0.9949   1
1149.569   0.8916   0.3354   0.9949   1
1149.629   1.1248   0.3512   0.9949   1
1149.689   0.8915   0.3351   0.9949   1
1149.749   0.9208   0.3367   0.9949   1
1149.809   0.7182   0.3218   0.9949   1
1149.869   0.9772   0.3394   0.9949   1
1149.928   0.8317   0.3298   0.9949   1
1149.988   0.7736   0.3262   0.9949   1
1150.048   0.8590   0.3311   0.9949   1
1150.108   0.9729   0.3386   0.9949   1
1150.168   0.6839   0.3170   0.9948   1
1150.228   0.9992   0.3404   0.9948   1
1150.287   0.6824   0.3178   0.9948   1
1150.347   1.0546   0.3436   0.9948   1
1150.407   0.9391   0.3363   0.9948   1
1150.467   0.8805   0.3309   0.9948   1
1150.527   0.7365   0.3212   0.9948   1
1150.586   0.8218   0.3270   0.9948   1
1150.646   1.2512   0.3566   0.9948   1
1150.706   1.2788   0.3571   0.9948   1
1150.766   1.1927   0.3532   0.9947   1
1150.826   1.0494   0.3425   0.9947   1
1150.885   0.9055   0.3321   0.9947   1
1150.945   0.9040   0.3320   0.9947   1
1151.005   0.9319   0.3332   0.9947   1
1151.065   0.7051   0.3166   0.9947   1
1151.125   0.7052   0.3167   0.9947   1
1151.185   0.9893   0.3370   0.9947   1
1151.245   0.5906   0.3076   0.9947   1
1151.304   0.9602   0.3357   0.9947   1
1151.364   0.8753   0.3272   0.9947   1
1151.424   0.9874   0.3354   0.9946   1
1151.484   0.8447   0.3260   0.9946   1
1151.544   0.8152   0.3222   0.9946   1
1151.603   0.8382   0.3263   0.9946   1
1151.663   1.0036   0.3401   0.9946   1
1151.723   1.0973   0.3479   0.9946   1
1151.783   1.2499   0.3577   0.9946   1
1151.843   1.0676   0.3455   0.9946   1
1151.902   1.1265   0.3470   0.9946   1
1151.962   1.0424   0.3412   0.9946   1
1152.022   0.7586   0.3227   0.9945   1
1152.082   1.2855   0.3580   0.9945   1
1152.142   0.9205   0.3332   0.9945   1
1152.202   0.9646   0.3336   0.9945   1
1152.261   1.1707   0.3490   0.9945   1
1152.321   0.8456   0.3268   0.9945   1
1152.381   0.7556   0.3192   0.9945   1
1152.441   0.7080   0.3143   0.9945   1
1152.501   0.8856   0.3252   0.9945   1
1152.561   0.7170   0.3120   0.9945   1
1152.620   0.5777   0.3006   0.9944   1
1152.680   0.7180   0.3126   0.9944   1
1152.740   0.6066   0.3034   0.9944   1
1152.800   0.7726   0.3164   0.9944   1
1152.860   0.7993   0.3184   0.9944   1
1152.919   0.8261   0.3193   0.9944   1
1152.979   0.9073   0.3250   0.9944   1
1153.039   0.8225   0.3176   0.9944   1
1153.099   0.9610   0.3281   0.9944   1
1153.159   0.8791   0.3208   0.9943   1
1153.219   1.2111   0.3449   0.9943   1
1153.278   0.9051   0.3238   0.9943   1
1153.338   1.1262   0.3382   0.9943   1
1153.398   1.1544   0.3407   0.9943   1
1153.458   1.1256   0.3383   0.9943   1
1153.518   0.7933   0.3143   0.9943   1
1153.577   0.7645   0.3121   0.9943   1
1153.637   1.1490   0.3394   0.9943   1
1153.697   1.0374   0.3318   0.9942   1
1153.757   0.9821   0.3280   0.9942   1
1153.817   0.7073   0.3085   0.9942   1
1153.877   0.7890   0.3136   0.9942   1
1153.936   0.8162   0.3145   0.9942   1
1153.996   0.8164   0.3153   0.9942   1
1154.056   0.8438   0.3170   0.9942   1
1154.116   0.8980   0.3206   0.9942   1
1154.176   0.6782   0.3048   0.9942   1
1154.235   0.5682   0.2959   0.9942   1
1154.295   0.7042   0.3047   0.9941   1
1154.355   0.5657   0.2957   0.9941   1
1154.415   0.7016   0.3049   0.9941   1
1154.475   0.9469   0.3224   0.9941   1
1154.535   0.6751   0.3035   0.9941   1
1154.594   0.8926   0.3180   0.9941   1
1154.654   1.2183   0.3401   0.9941   1
1154.714   1.2272   0.3413   0.9941   1
1154.774   0.7252   0.3088   0.9940   1
1154.834   0.6819   0.3070   0.9940   1
1154.893   1.0894   0.3363   0.9940   1
1154.953   0.7336   0.3087   0.9940   1
1155.013   0.9571   0.3248   0.9940   1
1155.073   1.0201   0.3284   0.9940   1
1155.133   1.0170   0.3283   0.9940   1
1155.193   0.9647   0.3234   0.9940   1
1155.252   0.8057   0.3101   0.9940   1
1155.312   0.8055   0.3102   0.9939   1
1155.372   0.6425   0.2981   0.9939   1
1155.432   0.6411   0.2972   0.9939   1
1155.492   0.8281   0.3110   0.9939   1
1155.552   0.6914   0.3015   0.9939   1
1155.611   0.6907   0.2999   0.9939   1
1155.671   0.4762   0.2834   0.9939   1
1155.731   0.7443   0.3036   0.9939   1
1155.791   0.6374   0.2961   0.9938   1
1155.851   0.6365   0.2960   0.9938   1
1155.910   1.0351   0.3233   0.9938   1
1155.970   1.0597   0.3255   0.9938   1
1156.030   0.8189   0.3091   0.9938   1
1156.090   0.7931   0.3073   0.9938   1
1156.150   1.0055   0.3220   0.9938   1
1156.209   0.6584   0.2962   0.9938   1
1156.269   0.9229   0.3150   0.9938   1
1156.329   0.8425   0.3104   0.9937   1
1156.389   0.7367   0.3024   0.9937   1
1156.449   0.6306   0.2939   0.9937   1
1156.509   0.4448   0.2788   0.9937   1
1156.568   0.6040   0.2917   0.9937   1
1156.628   0.8950   0.3118   0.9937   1
1156.688   0.8940   0.3131   0.9937   1
1156.748   0.8666   0.3100   0.9936   1
1156.808   1.0251   0.3214   0.9936   1
1156.868   0.7072   0.2999   0.9936   1
1156.927   0.9184   0.3137   0.9936   1
1156.987   0.6546   0.2939   0.9936   1
1157.047   0.9980   0.3200   0.9936   1
1157.107   0.6700   0.2965   0.9936   1
1157.167   0.7410   0.3037   0.9936   1
1157.226   0.9707   0.3203   0.9935   1
1157.286   0.8802   0.3138   0.9935   1
1157.346   0.9306   0.3173   0.9935   1
1157.406   0.9306   0.3178   0.9935   1
1157.466   1.0427   0.3234   0.9935   1
1157.526   1.3630   0.3452   0.9935   1
1157.585   0.8340   0.3075   0.9935   1
1157.645   0.8066   0.3047   0.9935   1
1157.705   0.9893   0.3174   0.9934   1
1157.765   0.8575   0.3082   0.9934   1
1157.825   1.0660   0.3214   0.9934   1
1157.885   0.6995   0.2957   0.9934   1
1157.944   0.8829   0.3089   0.9934   1
1158.004   0.8561   0.3063   0.9934   1
1158.064   0.8813   0.3087   0.9934   1
1158.124   1.0380   0.3194   0.9933   1
1158.184   0.9076   0.3104   0.9933   1
1158.243   0.7255   0.3051   0.9933   1
1158.303   0.8309   0.3500   0.9933   1
1158.363   0.6906   0.3396   0.9933   1
1158.423   0.9699   0.3645   0.9933   1
1158.483   0.8988   0.3562   0.9933   1
1158.542   0.7945   0.3499   0.9933   1
1158.602   0.8290   0.3514   0.9932   1
1158.662   0.8016   0.3026   0.9932   1
1158.722   0.8518   0.3044   0.9932   1
1158.782   0.7735   0.3001   0.9932   1
1158.842   0.7987   0.3023   0.9932   1
1158.901   0.6694   0.2918   0.9932   1
1158.961   0.7981   0.3007   0.9932   1
1159.021   0.5130   0.2797   0.9931   1
1159.081   0.8749   0.3072   0.9931   1
1159.141   0.6934   0.2928   0.9931   1
1159.201   0.7967   0.3014   0.9931   1
1159.260   0.5638   0.2826   0.9931   1
1159.320   0.8211   0.3026   0.9931   1
1159.380   0.3830   0.2672   0.9931   1
1159.440   0.7964   0.3005   0.9930   1
1159.500   1.1039   0.3215   0.9930   1
1159.559   0.8202   0.3017   0.9930   1
1159.619   0.8454   0.3030   0.9930   1
1159.679   0.7928   0.2987   0.9930   1
1159.739   0.5876   0.2842   0.9930   1
1159.799   0.9987   0.3134   0.9930   1
1159.859   0.6898   0.2919   0.9929   1
1159.918   0.8689   0.3047   0.9929   1
1159.978   0.7995   0.3011   0.9929   1
1160.038   0.9457   0.3114   0.9929   1
1160.098   0.8054   0.3044   0.9929   1
1160.158   0.8853   0.3096   0.9929   1
1160.217   1.2799   0.3352   0.9928   1
1160.277   0.8469   0.3051   0.9928   1
1160.337   1.0270   0.2947   0.9928   1
1160.397   1.1044   0.3237   0.9928   1
1160.457   0.8337   0.3060   0.9928   1
1160.517   0.9060   0.3092   0.9928   1
1160.576   0.7935   0.3011   0.9928   1
1160.636   0.9817   0.3144   0.9927   1
1160.696   0.8521   0.3051   0.9927   1
1160.756   0.7725   0.3001   0.9927   1
1160.816   0.7912   0.3002   0.9927   1
1160.875   1.2279   0.3281   0.9927   1
1160.935   1.2981   0.3302   0.9927   1
1160.995   0.8087   0.3125   0.9926   1
1161.055   0.7764   0.3409   0.9926   1
1161.115   0.9474   0.3549   0.9926   1
1161.175   0.9483   0.3545   0.9926   1
1161.234   1.1189   0.3705   0.9926   1
1161.294   0.9143   0.3540   0.9926   1
1161.354   0.8622   0.3426   0.9925   1
1161.414   0.6821   0.2891   0.9925   1
1161.474   0.7053   0.2899   0.9925   1
1161.533   0.8061   0.2981   0.9925   1
1161.593   0.7298   0.2922   0.9925   1
1161.653   0.6291   0.2846   0.9925   1
1161.713   0.8319   0.2990   0.9925   1
1161.773   1.1092   0.3180   0.9924   1
1161.833   0.9090   0.3044   0.9924   1
1161.892   1.0354   0.3129   0.9924   1
1161.952   0.8578   0.3011   0.9924   1
1162.012   0.8312   0.2979   0.9924   1
1162.072   0.7555   0.2925   0.9924   1
1162.132   1.0309   0.3119   0.9923   1
1162.192   1.0303   0.3119   0.9923   1
1162.251   1.1070   0.3166   0.9923   1
1162.311   0.8282   0.2989   0.9923   1
1162.371   1.0799   0.3151   0.9923   1
1162.431   0.8528   0.2991   0.9923   1
1162.491   0.7770   0.2948   0.9922   1
1162.550   0.9276   0.3035   0.9922   1
1162.610   0.7510   0.2915   0.9922   1
1162.670   1.0783   0.3142   0.9922   1
1162.730   0.7762   0.2925   0.9922   1
1162.790   0.9011   0.3020   0.9921   1
1162.849   1.0014   0.3097   0.9921   1
1162.909   0.5990   0.2800   0.9921   1
1162.969   0.8004   0.2943   0.9921   1
1163.029   0.7995   0.2941   0.9921   1
1163.089   0.7486   0.2897   0.9921   1
1163.149   0.4017   0.2650   0.9920   1
1163.208   0.5993   0.2833   0.9920   1
1163.268   0.7591   0.2939   0.9920   1
1163.328   0.6002   0.2820   0.9920   1
1163.388   0.7448   0.3391   0.9920   1
1163.448   0.8919   0.3541   0.9920   1
1163.508   0.7150   0.3391   0.9919   1
1163.567   0.8080   0.3441   0.9919   1
1163.627   0.6193   0.3275   0.9919   1
1163.687   0.9001   0.3484   0.9919   1
1163.747   0.6696   0.2884   0.9919   1
1163.807   0.9181   0.3016   0.9918   1
1163.866   0.9426   0.3033   0.9918   1
1163.926   0.8187   0.2947   0.9918   1
1163.986   1.0176   0.3085   0.9918   1
1164.046   0.9911   0.3069   0.9918   1
1164.106   0.7663   0.2908   0.9917   1
1164.166   0.9906   0.3062   0.9917   1
1164.225   0.9158   0.3008   0.9917   1
1164.285   1.1640   0.3180   0.9917   1
1164.345   1.1134   0.3153   0.9917   1
1164.405   0.8387   0.2938   0.9917   1
1164.465   0.9364   0.3007   0.9916   1
1164.525   0.8853   0.2989   0.9916   1
1164.584   0.9840   0.3045   0.9916   1
1164.644   1.0091   0.3064   0.9916   1
1164.704   0.7381   0.2879   0.9916   1
1164.764   0.8626   0.2964   0.9915   1
1164.824   0.9860   0.3055   0.9915   1
1164.883   0.9360   0.3023   0.9915   1
1164.943   0.9848   0.3047   0.9915   1
1165.003   0.8593   0.2960   0.9915   1
1165.063   0.9589   0.3027   0.9914   1
1165.123   1.0346   0.3078   0.9914   1
1165.182   0.9068   0.2976   0.9914   1
1165.242   0.8841   0.2962   0.9914   1
1165.302   0.8338   0.2932   0.9914   1
1165.362   1.4489   0.3324   0.9913   1
1165.422   0.9070   0.2982   0.9913   1
1165.482   1.1030   0.3116   0.9913   1
1165.541   1.1210   0.3155   0.9913   1
1165.601   0.9293   0.3037   0.9913   1
1165.661   1.2060   0.3213   0.9912   1
1165.721   0.9482   0.3029   0.9912   1
1165.781   1.0575   0.3114   0.9912   1
1165.841   0.9569   0.3061   0.9912   1
1165.900   0.9475   0.3044   0.9912   1
1165.960   0.8855   0.2986   0.9911   1
1166.020   0.7437   0.2869   0.9911   1
1166.080   1.0739   0.3079   0.9911   1
1166.140   1.1461   0.3121   0.9911   1
1166.199   1.0729   0.3078   0.9911   1
1166.259   0.9164   0.3213   0.9910   1
1166.319   0.7765   0.3331   0.9910   1
1166.379   1.1326   0.3583   0.9910   1
1166.439   0.8728   0.3393   0.9910   1
1166.499   0.9699   0.3479   0.9909   1
1166.558   1.0672   0.3550   0.9909   1
1166.618   1.0513   0.3438   0.9909   0
1166.678   0.7761   0.2858   0.9909   0
1166.738   0.8481   0.2912   0.9909   0
1166.798   0.8232   0.2899   0.9908   0
1166.857   0.9208   0.2963   0.9908   0
1166.917   1.0652   0.3060   0.9908   0
1166.977   0.6762   0.2796   0.9908   0
1167.037   0.6036   0.2736   0.9907   0
1167.097   0.9421   0.2969   0.9907   0
1167.157   0.7466   0.2842   0.9907   0
1167.216   1.0358   0.3032   0.9907   0
1167.276   0.6000   0.2736   0.9907   0
1167.336   0.9139   0.2953   0.9906   0
1167.396   1.0338   0.3025   0.9906   0
1167.456   0.6463   0.2756   0.9906   0
1167.516   0.7422   0.2830   0.9906   0
1167.575   0.7160   0.2806   0.9905   0
1167.635   0.7646   0.2839   0.9905   0
1167.695   0.9575   0.2979   0.9905   0
1167.755   0.5466   0.2677   0.9905   0
1167.815   0.7396   0.2818   0.9905   0
1167.874   0.6666   0.2765   0.9904   0
1167.934   0.6181   0.2727   0.9904   0
1167.994   0.8341   0.2883   0.9904   0
1168.054   0.8085   0.2858   0.9904   0
1168.114   0.7603   0.2827   0.9903   0
1168.173   0.7132   0.2806   0.9903   0
1168.233   0.9304   0.2943   0.9903   0
1168.293   0.6419   0.2734   0.9903   0
1168.353   1.0507   0.3022   0.9902   0
1168.413   0.6273   0.2742   0.9902   0
1168.473   0.8227   0.2895   0.9902   0
1168.532   0.8514   0.2923   0.9902   0
1168.592   0.7475   0.2843   0.9901   0
1168.652   0.7496   0.2847   0.9901   0
1168.712   0.7032   0.2811   0.9901   0
1168.772   0.9644   0.3003   0.9901   0
1168.832   0.7209   0.2833   0.9900   0
1168.891   0.7222   0.2839   0.9900   0
1168.951   0.8338   0.2902   0.9900   0
1169.011   0.7048   0.2811   0.9900   0
1169.071   1.0552   0.3058   0.9899   0
1169.131   0.6772   0.2782   0.9899   0
1169.190   0.8245   0.2893   0.9899   0
1169.250   0.8158   0.2874   0.9899   0
1169.310   0.6512   0.2739   0.9898   0
1169.370   0.7400   0.2792   0.9898   0
1169.430   0.7365   0.2788   0.9898   0
1169.490   0.7142   0.2778   0.9898   0
1169.549   0.8805   0.2905   0.9897   0
1169.609   0.8083   0.2840   0.9897   0
1169.669   0.6891   0.2762   0.9897   0
1169.729   0.9726   0.2938   0.9897   0
1169.789   0.9475   0.2924   0.9896   0
1169.849   0.6610   0.2735   0.9896   0
1169.908   0.6837   0.2735   0.9896   0
1169.968   0.7779   0.2817   0.9896   0
1170.028   0.8484   0.2867   0.9895   0
1170.088   0.8488   0.2855   0.9895   0
1170.148   0.7538   0.2786   0.9895   0
1170.207   0.5877   0.2673   0.9894   0
1170.267   0.7769   0.2812   0.9894   0
1170.327   0.6107   0.2682   0.9894   0
1170.387   0.7523   0.2771   0.9894   0
1170.447   0.6343   0.2711   0.9893   0
1170.506   0.8684   0.2873   0.9893   0
1170.566   0.5855   0.2663   0.9893   0
1170.626   0.5370   0.2633   0.9893   0
1170.686   0.2775   0.2411   0.9892   0
1170.746   0.4193   0.2532   0.9892   0
1170.806   0.7715   0.2799   0.9892   0
1170.865   0.4885   0.2582   0.9891   0
1170.925   0.5121   0.2601   0.9891   0
1170.985   0.6306   0.2697   0.9891   0
1171.045   0.6540   0.2709   0.9891   0
1171.105   0.7007   0.2740   0.9890   0
1171.165   0.5819   0.2660   0.9890   0
1171.224   0.4649   0.2555   0.9890   0
1171.284   0.7933   0.2811   0.9889   0
1171.344   0.5814   0.2651   0.9889   0
1171.404   0.6275   0.2684   0.9889   0
1171.464   0.4388   0.2538   0.9889   0
1171.523   0.8014   0.2813   0.9888   0
1171.583   0.5282   0.2630   0.9888   0
1171.643   0.7587   0.2808   0.9888   0
1171.703   0.4660   0.2583   0.9887   0
1171.763   0.5406   0.2647   0.9887   0
1171.823   0.8841   0.2898   0.9887   0
1171.882   0.8106   0.2855   0.9886   0
1171.942   0.4413   0.2569   0.9886   0
1172.002   0.4580   0.2569   0.9886   0
1172.062   0.7093   0.2749   0.9886   0
1172.122   0.9629   0.2921   0.9885   0
1172.181   0.5563   0.2632   0.9885   0
1172.241   0.7202   0.2740   0.9885   0
1172.301   0.5326   0.2613   0.9884   0
1172.361   0.6260   0.2680   0.9884   0
1172.421   0.6736   0.2720   0.9884   0
1172.481   0.6507   0.2707   0.9883   0
1172.540   0.7675   0.2788   0.9883   0
1172.600   0.6031   0.2674   0.9883   0
1172.660   0.5550   0.2630   0.9882   0
1172.720   0.3907   0.2501   0.9882   0
1172.780   0.7882   0.2810   0.9882   0
1172.839   0.5777   0.2652   0.9881   0
1172.899   0.3440   0.2457   0.9881   0
1172.959   0.3436   0.2460   0.9881   0
1173.019   0.4149   0.2516   0.9880   0
1173.079   0.5084   0.2585   0.9880   0
1173.139   0.6260   0.2688   0.9880   0
1173.198   0.8370   0.2841   0.9879   0
1173.258   0.6970   0.2747   0.9879   0
1173.318   0.7202   0.2756   0.9879   0
1173.378   0.5323   0.2619   0.9878   0
1173.438   0.6500   0.2702   0.9878   0
1173.497   0.6967   0.2735   0.9878   0
1173.557   0.6250   0.2681   0.9877   0
1173.617   0.4861   0.2563   0.9877   0
1173.677   0.6042   0.2672   0.9877   0
1173.737   0.5333   0.2618   0.9876   0
1173.797   0.6746   0.2723   0.9876   0
1173.856   0.4644   0.2565   0.9876   0
1173.916   0.4982   0.2605   0.9875   0
1173.976   0.7793   0.2825   0.9875   0
1174.036   0.6622   0.2738   0.9875   0
1174.096   0.3418   0.2484   0.9874   0
1174.156   0.5119   0.2624   0.9874   0
1174.215   0.5864   0.2697   0.9874   0
1174.275   0.5895   0.2693   0.9873   0
1174.335   0.6821   0.2757   0.9873   0
1174.395   0.6697   0.2733   0.9873   0
1174.455   0.6077   0.2683   0.9872   0
1174.514   0.4866   0.2588   0.9872   0
1174.574   0.6033   0.2675   0.9871   0
1174.634   0.4625   0.2565   0.9871   0
1174.694   0.5330   0.2626   0.9871   0
1174.754   0.5568   0.2645   0.9870   0
1174.813   0.5783   0.2654   0.9870   0
1174.873   0.7194   0.2771   0.9870   0
1174.933   0.6017   0.2670   0.9869   0
1174.993   0.6254   0.2692   0.9869   0
1175.053   0.6748   0.2734   0.9868   0
1175.113   0.4402   0.2545   0.9868   0
1175.172   0.5582   0.2646   0.9868   0
1175.232   0.3942   0.2517   0.9867   0
1175.292   0.5822   0.2665   0.9867   0
1175.352   0.5830   0.2673   0.9867   0
1175.412   0.7231   0.2775   0.9866   0
1175.472   0.6055   0.2690   0.9866   0
1175.531   0.5353   0.2630   0.9865   0
1175.591   0.3708   0.2498   0.9865   0
1175.651   0.3703   0.2501   0.9865   0
1175.711   0.3237   0.2463   0.9864   0
1175.771   0.6295   0.2700   0.9864   0
1175.830   0.4419   0.2560   0.9863   0
1175.890   0.4885   0.2590   0.9863   0
1175.950   0.7016   0.2757   0.9863   0
1176.010   0.3009   0.2440   0.9862   0
1176.070   0.8667   0.2873   0.9862   0
1176.130   0.5605   0.2662   0.9861   0
1176.189   0.4891   0.2601   0.9861   0
1176.249   0.3951   0.2523   0.9861   0
1176.309   0.5376   0.2643   0.9860   0
1176.369   0.3259   0.2473   0.9860   0
1176.429   0.3275   0.2474   0.9859   0
1176.489   0.3755   0.2517   0.9859   0
1176.548   0.3745   0.2519   0.9859   0
1176.608   0.3509   0.2499   0.9858   0
1176.668   0.4690   0.2588   0.9858   0
1176.728   0.3977   0.2544   0.9857   0
1176.788   0.4271   0.2563   0.9857   0
1176.847   0.3601   0.2523   0.9856   0
1176.907   0.5432   0.2684   0.9856   0
1176.967   0.4697   0.2624   0.9856   0
1177.027   0.3701   0.2540   0.9855   0
1177.087   0.2935   0.2474   0.9855   0
1177.146   0.4696   0.2622   0.9854   0
1177.206   0.2758   0.2470   0.9854   0
1177.266   0.4860   0.2653   0.9853   0
1177.326   0.4281   0.2602   0.9853   0
1177.386   0.4719   0.2638   0.9852   0
1177.446   0.3907   0.2560   0.9852   0
1177.505   0.2662   0.2455   0.9852   0
1177.565   0.4886   0.2643   0.9851   0
1177.625   0.5121   0.2671   0.9851   0
1177.685   0.4562   0.2608   0.9850   0
1177.745   0.5910   0.2704   0.9850   0
1177.805   0.6583   0.2755   0.9849   0
1177.864   0.6118   0.2726   0.9849   0
1177.924   0.3268   0.2502   0.9848   0
1177.984   0.6069   0.2516   0.9848   0
1178.044   0.4704   0.2617   0.9847   0
1178.104   0.5431   0.2672   0.9847   0
1178.163   0.6398   0.2758   0.9846   0
1178.223   0.6629   0.2769   0.9846   0
1178.283   0.6164   0.2732   0.9846   0
1178.343   0.8089   0.2872   0.9845   0
1178.403   0.8337   0.2901   0.9845   0
1178.463   0.8341   0.2902   0.9844   0
1178.522   0.8108   0.2885   0.9844   0
1178.582   0.7875   0.2867   0.9843   0
1178.642   1.1224   0.3090   0.9843   1
1178.702   0.9552   0.2977   0.9842   1
1178.762   0.6915   0.2800   0.9842   1
1178.822   0.9326   0.2967   0.9841   1
1178.881   1.0056   0.3013   0.9841   1
1178.941   1.0055   0.3017   0.9840   1
1179.001   1.1255   0.3098   0.9840   1
1179.061   1.1010   0.3084   0.9839   1
1179.121   0.9805   0.3001   0.9839   1
1179.180   0.8362   0.2908   0.9838   1
1179.240   1.1248   0.3085   0.9838   1
1179.300   1.1705   0.3116   0.9837   1
1179.360   0.9544   0.2980   0.9836   1
1179.420   0.7156   0.2808   0.9836   1
1179.479   0.9539   0.2973   0.9835   1
1179.539   1.1677   0.3094   0.9835   1
1179.599   1.2632   0.3170   0.9834   1
1179.659   0.8802   0.2917   0.9834   1
1179.719   0.9044   0.2941   0.9833   1
1179.779   1.1910   0.3119   0.9833   1
1179.838   0.9514   0.2966   0.9832   1
1179.898   0.8110   0.2869   0.9832   1
1179.958   0.8257   0.2889   0.9831   1
1180.018   0.9951   0.3030   0.9831   1
1180.078   1.0040   0.3039   0.9830   1
1180.138   1.0469   0.3069   0.9829   1
1180.197   1.0405   0.3064   0.9829   1
1180.257   1.3116   0.3221   0.9828   1
1180.317   0.7104   0.2831   0.9828   1
1180.377   0.8314   0.2906   0.9827   1
1180.437   0.8935   0.2932   0.9827   1
1180.496   0.9967   0.2994   0.9826   1
1180.556   1.0396   0.3018   0.9826   1
1180.616   0.8494   0.2881   0.9825   1
1180.676   1.0149   0.3005   0.9824   1
1180.736   0.6815   0.2761   0.9824   1
1180.796   1.0123   0.2995   0.9823   1
1180.855   0.9875   0.2982   0.9823   1
1180.915   1.2719   0.3158   0.9822   1
1180.975   0.7737   0.2829   0.9821   1
1181.035   0.9630   0.2956   0.9821   1
1181.095   0.9872   0.2965   0.9820   1
1181.154   1.0107   0.2987   0.9820   1
1181.214   1.2005   0.3103   0.9819   1
1181.274   0.7981   0.2843   0.9818   1
1181.334   1.1774   0.3084   0.9818   1
1181.394   0.8467   0.2869   0.9817   1
1181.454   0.8224   0.2864   0.9817   1
1181.513   0.8439   0.2871   0.9816   1
1181.573   0.9598   0.2944   0.9815   1
1181.633   0.9592   0.2938   0.9815   1
1181.693   0.8883   0.2895   0.9814   1
1181.753   0.9344   0.2918   0.9813   1
1181.812   1.0281   0.2981   0.9813   1
1181.872   1.3095   0.3144   0.9812   1
1181.932   0.8848   0.2891   0.9811   1
1181.992   0.9780   0.2943   0.9811   1
1182.052   0.6719   0.2730   0.9810   1
1182.112   1.0226   0.2971   0.9810   1
1182.171   0.8577   0.2861   0.9809   1
1182.231   0.9041   0.2887   0.9808   1
1182.291   0.9899   0.2959   0.9808   1
1182.351   0.9438   0.2940   0.9807   1
1182.411   0.9265   0.2945   0.9806   1
1182.470   0.8500   0.2877   0.9806   1
1182.530   1.1383   0.3065   0.9805   1
1182.590   1.0635   0.3021   0.9804   1
1182.650   1.1080   0.3043   0.9803   1
1182.710   0.9357   0.2916   0.9803   1
1182.770   0.7542   0.2791   0.9802   1
1182.829   1.1014   0.3002   0.9801   1
1182.889   1.2269   0.3074   0.9801   1
1182.949   1.0149   0.2949   0.9800   0
1183.009   1.0611   0.2956   0.9799   0
1183.069   0.8757   0.2854   0.9799   0
1183.129   1.1987   0.3059   0.9798   0
1183.188   1.1522   0.3023   0.9797   0
1183.248   0.8974   0.2864   0.9796   0
1183.308   0.9427   0.2887   0.9796   0
1183.368   1.1035   0.2994   0.9795   0
1183.428   1.0808   0.2973   0.9794   0
1183.487   0.9190   0.2865   0.9793   0
1183.547   0.9186   0.2864   0.9793   0
1183.607   0.7799   0.2773   0.9792   0
1183.667   0.8480   0.2814   0.9791   0
1183.727   0.8008   0.2779   0.9790   0
1183.786   0.9373   0.2874   0.9790   0
1183.846   0.9606   0.2878   0.9789   0
1183.906   1.0984   0.2963   0.9788   0
1183.966   0.8673   0.2811   0.9787   0
1184.026   0.8897   0.2834   0.9787   0
1184.086   0.8897   0.2827   0.9786   0
1184.146   0.7504   0.2737   0.9785   0
1184.205   0.8864   0.2825   0.9784   0
1184.265   0.8398   0.2779   0.9784   0
1184.325   1.1385   0.2974   0.9783   0
1184.385   0.7016   0.2681   0.9782   0
1184.445   0.7695   0.2733   0.9781   0
1184.504   0.6779   0.2670   0.9780   0
1184.564   0.5406   0.2568   0.9779   0
1184.624   0.6991   0.2679   0.9779   0
1184.684   0.5399   0.2564   0.9778   0
1184.744   0.5164   0.2541   0.9777   0
1184.803   0.5615   0.2570   0.9776   0
1184.863   0.6966   0.2671   0.9775   0
1184.923   0.4926   0.2520   0.9774   0
1184.983   0.6495   0.2638   0.9774   0
1185.043   0.6036   0.2596   0.9773   0
1185.103   0.7383   0.2699   0.9772   0
1185.162   0.8550   0.2770   0.9771   0
1185.222   0.6412   0.2639   0.9770   0
1185.282   0.7024   0.2687   0.9769   0
1185.342   0.8250   0.2785   0.9768   0
1185.402   0.7966   0.2755   0.9768   0
1185.462   0.7428   0.2697   0.9767   0
1185.521   0.7634   0.2725   0.9766   0
1185.581   0.8305   0.2755   0.9765   0
1185.641   0.7505   0.2717   0.9764   0
1185.701   0.6329   0.2627   0.9763   0
1185.761   0.7885   0.2729   0.9762   0
1185.820   0.9262   0.2829   0.9761   0
1185.880   0.6909   0.2655   0.9760   0
1185.940   1.0852   0.2914   0.9759   0
1186.000   0.7372   0.2686   0.9758   0
1186.060   0.8679   0.2769   0.9758   0
1186.120   0.5784   0.2544   0.9757   0
1186.179   0.7441   0.2658   0.9756   0
1186.239   0.6560   0.2599   0.9755   0
1186.299   0.5895   0.2543   0.9754   0
1186.359   0.5448   0.2513   0.9753   0
1186.419   0.5650   0.2522   0.9752   0
1186.478   0.6079   0.2546   0.9751   0
1186.538   0.8279   0.2703   0.9750   0
1186.598   0.8275   0.2712   0.9749   0
1186.658   0.7834   0.2674   0.9748   0
1186.718   0.8931   0.2741   0.9747   0
1186.778   0.7614   0.2652   0.9746   0
1186.837   0.8271   0.2694   0.9745   0
1186.897   0.7391   0.2633   0.9744   0
1186.957   0.9347   0.2763   0.9743   0
1187.017   0.9328   0.2757   0.9742   0
1187.077   0.7561   0.2643   0.9741   0
1187.136   0.9974   0.2791   0.9740   0
1187.196   0.7783   0.2651   0.9739   0
1187.256   0.9083   0.2733   0.9738   0
1187.316   0.6242   0.2539   0.9736   0
1187.376   1.0599   0.2833   0.9735   0
1187.436   0.7545   0.2637   0.9734   0
1187.495   0.7972   0.2655   0.9733   0
1187.555   1.1236   0.2870   0.9732   0
1187.615   0.8609   0.2697   0.9731   0
1187.675   0.9247   0.2741   0.9730   0
1187.735   1.0538   0.2820   0.9729   0
1187.794   0.7711   0.2625   0.9728   0
1187.854   0.6609   0.2559   0.9727   0
1187.914   0.6600   0.2551   0.9725   0
1187.974   0.7675   0.2622   0.9724   0
1188.034   0.6148   0.2510   0.9723   0
1188.094   0.7012   0.2580   0.9722   0
1188.153   0.8743   0.2698   0.9721   0
1188.213   1.0067   0.2769   0.9720   0
1188.273   0.8317   0.2665   0.9719   0
1188.333   0.9590   0.2746   0.9717   0
1188.393   0.8929   0.2712   0.9716   0
1188.453   0.9773   0.2782   0.9715   0
1188.512   0.7787   0.2653   0.9714   0
1188.572   1.0499   0.2830   0.9713   0
1188.632   1.1581   0.2892   0.9711   0
1188.692   0.6208   0.2530   0.9710   0
1188.752   0.7579   0.2633   0.9709   0
1188.811   0.8167   0.2673   0.9708   0
1188.871   1.0107   0.2766   0.9706   0
1188.931   0.7659   0.2605   0.9705   0
1188.991   0.7023   0.2561   0.9704   0
1189.051   1.0889   0.2804   0.9703   0
1189.110   0.7894   0.2618   0.9701   0
1189.170   0.6389   0.2518   0.9700   0
1189.230   0.8524   0.2659   0.9699   0
1189.290   0.7024   0.2556   0.9697   0
1189.350   0.9148   0.2688   0.9696   0
1189.410   0.8493   0.2655   0.9695   0
1189.469   0.7846   0.2612   0.9693   0
1189.529   0.7196   0.2561   0.9692   0
1189.589   1.0611   0.2777   0.9691   0
1189.649   0.8690   0.2662   0.9689   0
1189.709   0.8044   0.2612   0.9688   0
1189.769   0.6737   0.2519   0.9687   0
1189.828   0.8647   0.2655   0.9685   0
1189.888   0.5882   0.2454   0.9684   0
1189.948   0.6314   0.2487   0.9682   0
1190.008   0.5242   0.2412   0.9681   0
1190.068   0.5031   0.2395   0.9680   0
1190.127   0.2045   0.2148   0.9678   0
1190.187   0.3736   0.2293   0.9677   0
1190.247   0.3318   0.2258   0.9675   0
1190.307   0.0986   0.2046   0.9674   0
1190.367   0.1203   0.2066   0.9672   0
1190.427   0.0782   0.2026   0.9671   0
1190.486   0.0992   0.2046   0.9669   0
1190.546   0.0998   0.2044   0.9668   0
1190.606   0.1427   0.2082   0.9666   0
1190.666   0.1421   0.2084   0.9665   0
1190.726   0.2920   0.2213   0.9663   0
1190.786   0.2802   0.2208   0.9662   0
1190.845   0.4366   0.2353   0.9660   0
1190.905   0.5024   0.2396   0.9659   0
1190.965   0.5213   0.2413   0.9657   0
1191.025   0.6549   0.2511   0.9655   0
1191.085   0.5239   0.2415   0.9654   0
1191.144   0.8498   0.2645   0.9652   0
1191.204   0.6594   0.2488   0.9651   0
1191.264   0.6873   0.2506   0.9649   0
1191.324   0.5184   0.2389   0.9647   0
1191.384   0.7067   0.2511   0.9646   0
1191.443   0.6853   0.2507   0.9644   0
1191.503   0.5179   0.2385   0.9642   0
1191.563   0.7269   0.2537   0.9641   0
1191.623   0.3915   0.2283   0.9639   0
1191.683   0.2670   0.2178   0.9637   0
1191.743   0.2668   0.2175   0.9636   0
1191.802   0.2042   0.2118   0.9634   0
1191.862   0.0790   0.2001   0.9632   0
1191.922   0.1207   0.2037   0.9630   0
1191.982   0.0372   0.1957   0.9629   0
1192.042   0.0575   0.1974   0.9627   0
1192.102   0.0580   0.1975   0.9625   0
1192.161   0.0164   0.1932   0.9623   0
1192.221   0.0361   0.1952   0.9621   0
1192.281   0.0362   0.1952   0.9619   0
1192.341   0.0363   0.1950   0.9618   0
1192.401   0.1608   0.2069   0.9616   0
1192.460   0.0563   0.1968   0.9614   0
1192.520   0.0148   0.1926   0.9612   0
1192.580   0.1392   0.2042   0.9610   0
1192.640   0.1809   0.2081   0.9608   0
1192.700   0.2220   0.2116   0.9606   0
1192.760   0.4081   0.2269   0.9604   0
1192.819   0.4074   0.2267   0.9602   0
1192.879   0.6970   0.2481   0.9600   0
1192.939   0.4068   0.2266   0.9598   0
1192.999   0.4066   0.2267   0.9596   0
1193.059   0.2834   0.2166   0.9594   0
1193.118   0.1592   0.2057   0.9592   0
1193.178   0.0774   0.1975   0.9590   0
1193.238   0.0982   0.1991   0.9588   0
1193.298   0.0977   0.1994   0.9586   0
1193.358   0.0566   0.1951   0.9584   0
1193.418   0.0976   0.1990   0.9582   0
1193.477   0.1185   0.2010   0.9580   0
1193.537   0.0977   0.1990   0.9578   0
1193.597   0.1179   0.2008   0.9575   0
1193.657   0.3109   0.2181   0.9573   0
1193.717   0.4442   0.2299   0.9571   0
1193.776   0.3366   0.2208   0.9569   0
1193.836   0.5538   0.2387   0.9567   0
1193.896   0.5716   0.2393   0.9564   0
1193.956   0.4689   0.2317   0.9562   0
1194.016   0.5681   0.2403   0.9560   0
1194.076   0.5761   0.2421   0.9557   0
1194.135   0.5414   0.2381   0.9555   0
1194.195   0.6400   0.2441   0.9553   0
1194.255   0.6121   0.2417   0.9550   0
1194.315   0.6350   0.2439   0.9548   0
1194.375   0.4889   0.2329   0.9546   0
1194.434   0.3802   0.2227   0.9543   0
1194.494   0.4568   0.2291   0.9541   0
1194.554   0.1575   0.2030   0.9538   0
1194.614   0.1571   0.2029   0.9536   0
1194.674   0.1151   0.1987   0.9533   0
1194.734   0.0531   0.1929   0.9531   0
1194.793   0.0125   0.1888   0.9528   0
1194.853   0.0127   0.1886   0.9526   0
1194.913   0.0736   0.1946   0.9523   0
1194.973   0.0532   0.1923   0.9521   0
1195.033   0.0522   0.1923   0.9518   0
1195.093   0.0122   0.1882   0.9515   0
1195.152   0.0129   0.1881   0.9513   0
1195.212   0.0737   0.1940   0.9510   0
1195.272   0.0134   0.1879   0.9507   0
1195.332   0.0134   0.1878   0.9505   0
1195.392   0.0129   0.1877   0.9502   0
1195.451   0.0133   0.1876   0.9499   0
1195.511   0.0936   0.1953   0.9496   0
1195.571   0.1943   0.2046   0.9493   0
1195.631   0.3759   0.2197   0.9491   0
1195.691   0.3747   0.2030   0.9488   0
1195.750   0.3372   0.2165   0.9485   0
1195.810   0.5778   0.2348   0.9482   0
1195.870   0.3970   0.2208   0.9479   0
1195.930   0.5777   0.2347   0.9476   0
1195.990   0.7592   0.2457   0.9473   0
1196.050   0.7577   0.2465   0.9470   0
1196.109   0.9375   0.2582   0.9467   0
1196.169   0.6357   0.2383   0.9464   0
1196.229   0.5541   0.2320   0.9461   0
1196.289   0.5739   0.2340   0.9458   0
1196.349   0.6731   0.2408   0.9455   0
1196.409   0.7723   0.2475   0.9451   1
1196.468   0.7523   0.2454   0.9448   1
1196.528   0.5723   0.2331   0.9445   1
1196.588   0.9112   0.2555   0.9442   1
1196.648   0.7711   0.2460   0.9438   1
1196.708   0.6748   0.2398   0.9435   1
1196.767   0.9381   0.2589   0.9432   1
1196.827   0.7665   0.2480   0.9428   1
1196.887   0.7265   0.2460   0.9425   1
1196.947   1.0772   0.2683   0.9422   1
1197.007   0.9023   0.2575   0.9418   1
1197.067   0.8021   0.2489   0.9415   1
1197.126   0.8476   0.2538   0.9411   1
1197.186   0.8872   0.2566   0.9408   1
1197.246   0.7784   0.2474   0.9404   1
1197.306   0.9819   0.2583   0.9400   1
1197.366   1.0608   0.2629   0.9397   1
1197.426   0.6642   0.2378   0.9393   1
1197.485   0.7032   0.2405   0.9389   1
1197.545   0.7429   0.2425   0.9386   1
1197.605   0.9994   0.2599   0.9382   1
1197.665   0.9986   0.2587   0.9378   1
1197.725   0.7226   0.2410   0.9374   1
1197.784   1.0784   0.2632   0.9370   1
1197.844   0.8010   0.2461   0.9366   1
1197.904   0.7998   0.2458   0.9362   1
1197.964   0.9962   0.2585   0.9358   1
1198.024   0.8580   0.2503   0.9354   1
1198.083   0.6410   0.2343   0.9350   1
1198.143   0.5825   0.2310   0.9346   0
1198.203   0.9954   0.2581   0.9342   0
1198.263   0.7208   0.2397   0.9338   0
1198.323   0.7800   0.2449   0.9333   0
1198.383   0.7587   0.2416   0.9329   0
1198.442   0.9935   0.2570   0.9325   0
1198.502   0.5229   0.2265   0.9321   0
1198.562   0.6764   0.2369   0.9316   0
1198.622   0.8718   0.2501   0.9312   0
1198.682   0.5009   0.2238   0.9307   0
1198.742   0.7149   0.2388   0.9303   0
1198.801   0.6766   0.2365   0.9298   0
1198.861   0.5014   0.2240   0.9293   0
1198.921   0.5590   0.2278   0.9289   0
1198.981   0.6548   0.2344   0.9284   0
1199.041   0.4788   0.2209   0.9279   0
1199.100   0.6498   0.2350   0.9275   0
1199.160   0.7068   0.2406   0.9270   0
1199.220   0.5856   0.2324   0.9265   0
1199.280   0.4218   0.2192   0.9260   0
1199.340   0.6000   0.2321   0.9255   0
1199.400   0.2958   0.2079   0.9250   0
1199.459   0.3199   0.2107   0.9245   0
1199.519   0.1150   0.1915   0.9240   0
1199.579   0.0532   0.1853   0.9234   0
1199.639   0.2634   0.2038   0.9229   0
1199.699   0.4372   0.2178   0.9224   0
1199.758   0.4374   0.2175   0.9218   0
1199.818   0.3982   0.2139   0.9213   0
1199.878   0.4175   0.2161   0.9208   0
1199.938   0.4556   0.2187   0.9202   0
1199.998   0.3789   0.2120   0.9196   0
1200.058   0.4934   0.2213   0.9191   0
1200.117   0.2627   0.2028   0.9185   0
1200.177   0.2438   0.2014   0.9179   0
1200.237   0.1670   0.1940   0.9174   0
1200.297   0.1860   0.1962   0.9168   0
1200.357   0.2444   0.2016   0.9162   0
1200.417   0.3405   0.2092   0.9156   0
1200.476   0.4749   0.2194   0.9150   0
1200.536   0.2827   0.2041   0.9143   0
1200.596   0.3209   0.2073   0.9137   0
1200.656   0.1873   0.1955   0.9131   0
1200.716   0.1105   0.1884   0.9125   0
1200.775   0.1875   0.1956   0.9118   0
1200.835   0.1688   0.1935   0.9112   0
1200.895   0.2456   0.2000   0.9105   0
1200.955   0.1698   0.1938   0.9099   0
1201.015   0.2465   0.2004   0.9092   0
1201.074   0.1317   0.1900   0.9085   0
1201.134   0.1507   0.1917   0.9078   0
1201.194   0.1505   0.1914   0.9071   0
1201.254   0.0741   0.1839   0.9064   0
1201.314   0.1125   0.1878   0.9057   0
1201.374   0.1692   0.1927   0.9050   0
1201.433   0.0359   0.1801   0.9043   0
1201.493   0.0546   0.1819   0.9036   0
1201.553   0.1120   0.1872   0.9028   0
1201.613   0.0167   0.1779   0.9021   0
1201.673   0.0358   0.1797   0.9013   0
1201.733   -0.0023   0.1758   0.9006   0
1201.792   0.0167   0.1777   0.8998   0
1201.852   0.0170   0.1776   0.8990   0
1201.912   0.0551   0.1813   0.8982   0
1201.972   0.1127   0.1870   0.8974   0
1202.032   0.0964   0.1856   0.8966   0
1202.091   0.1383   0.1902   0.8958   0
1202.151   0.0785   0.1845   0.8949   0
1202.211   0.0377   0.1801   0.8941   0
1202.271   0.0762   0.1837   0.8933   0
1202.331   0.0373   0.1799   0.8924   0
1202.391   0.0970   0.1862   0.8915   0
1202.450   0.1414   0.1906   0.8906   0
1202.510   0.0997   0.1862   0.8898   0
1202.570   0.2166   0.1977   0.8889   0
1202.630   0.0570   0.1816   0.8879   0
1202.690   0.1348   0.1889   0.8870   0
1202.750   0.2148   0.1966   0.8861   0
1202.809   0.1361   0.1890   0.8851   0
1202.869   0.1932   0.1941   0.8842   0
1202.929   0.2082   0.1948   0.8832   0
1202.989   0.3014   0.2024   0.8822   0
1203.049   0.6565   0.2286   0.8812   0
1203.108   0.4867   0.2166   0.8802   0
1203.168   0.5431   0.2202   0.8792   0
1203.228   0.3735   0.2081   0.8782   0
1203.288   0.3738   0.2078   0.8771   0
1203.348   0.5051   0.2186   0.8761   0
1203.407   0.5806   0.2237   0.8750   0
1203.467   0.5430   0.2202   0.8739   0
1203.527   0.5235   0.2183   0.8728   0
1203.587   0.3543   0.2063   0.8717   0
1203.647   0.4281   0.2117   0.8706   0
1203.707   0.4453   0.2133   0.8694   0
1203.766   0.5010   0.2165   0.8683   0
1203.826   0.6508   0.2270   0.8671   0
1203.886   0.4261   0.2119   0.8659   0
1203.946   0.6139   0.2248   0.8647   0
1204.006   0.5574   0.2211   0.8635   0
1204.066   0.6134   0.2247   0.8623   0
1204.125   0.6863   0.2298   0.8610   0
1204.185   0.7608   0.2345   0.8598   0
1204.245   0.5736   0.2220   0.8585   0
1204.305   0.5177   0.2169   0.8572   0
1204.365   0.6865   0.2303   0.8559   0
1204.424   0.7237   0.2314   0.8545   0
1204.484   0.5732   0.2216   0.8532   0
1204.544   0.7598   0.2342   0.8518   0
1204.604   0.6843   0.2290   0.8504   0
1204.664   0.5356   0.2183   0.8490   0
1204.724   0.6292   0.2247   0.8475   0
1204.783   0.5348   0.2180   0.8461   0
1204.843   0.4596   0.2125   0.8446   0
1204.903   0.7562   0.2340   0.8431   0
1204.963   0.4763   0.2137   0.8416   0
1205.023   0.4759   0.2141   0.8401   0
1205.082   0.7360   0.2319   0.8385   0
1205.142   0.3843   0.2074   0.8369   0
1205.202   0.5329   0.2195   0.8353   0
1205.262   0.4446   0.2138   0.8337   0
1205.322   0.6749   0.2309   0.8321   0
1205.382   0.6286   0.2267   0.8304   0
1205.441   0.6625   0.2281   0.8287   0
1205.501   0.2975   0.2009   0.8270   0
1205.561   0.6132   0.2244   0.8252   0
1205.621   0.5648   0.2211   0.8235   0
1205.681   0.5386   0.2186   0.8217   0
1205.740   0.4734   0.2127   0.8198   0
1205.800   0.4526   0.2117   0.8180   0
1205.860   0.1933   0.1905   0.8161   0
1205.920   0.1757   0.1892   0.8142   0
1205.980   0.0465   0.1773   0.8123   0
1206.040   0.1208   0.1842   0.8103   0
1206.099   0.0654   0.1790   0.8083   0
1206.159   0.0839   0.1807   0.8063   0
1206.219   0.0094   0.1735   0.8042   0
1206.279   0.0093   0.1735   0.8021   0
1206.339   0.0106   0.1735   0.8000   0
1206.398   -0.0079   0.1716   0.7979   0
1206.458   0.0108   0.1734   0.7957   0
1206.518   -0.0073   0.1715   0.7934   0
1206.578   0.0118   0.1733   0.7912   0
1206.638   0.0304   0.1751   0.7889   0
1206.698   0.0492   0.1769   0.7866   0
1206.757   0.0309   0.1750   0.7842   0
1206.817   0.0867   0.1805   0.7818   0
1206.877   0.0866   0.1803   0.7793   0
1206.937   0.1055   0.1819   0.7769   0
1206.997   0.1243   0.1833   0.7743   0
1207.057   0.1244   0.1836   0.7718   0
1207.116   0.1987   0.1899   0.7692   0
1207.176   0.2549   0.1949   0.7665   0
1207.236   0.2734   0.1963   0.7638   0
1207.296   0.3089   0.1992   0.7611   0
1207.356   0.3268   0.2008   0.7583   0
1207.415   0.3474   0.2028   0.7555   0
1207.475   0.3279   0.2011   0.7526   0
1207.535   0.3376   0.2023   0.7497   0
1207.595   0.2873   0.1993   0.7467   0
1207.655   0.2106   0.1927   0.7437   0
1207.714   0.0727   0.1790   0.7406   0
1207.774   0.1110   0.1828   0.7375   0
1207.834   -0.0041   0.1711   0.7343   0
1207.894   0.0155   0.1735   0.7311   0
1207.954   0.0147   0.1732   0.7278   0
1208.014   0.0138   0.1727   0.7244   0
1208.073   0.0133   0.1724   0.7210   0
1208.133   -0.0050   0.1706   0.7175   0
1208.193   0.0313   0.1742   0.7140   0
1208.253   -0.0051   0.1705   0.7104   0
1208.313   0.0141   0.1723   0.7068   0
1208.373   0.0321   0.1741   0.7030   0
1208.432   0.0139   0.1723   0.6993   0
1208.492   0.0509   0.1758   0.6954   0
1208.552   0.0507   0.1759   0.6915   0
1208.612   0.0685   0.1776   0.6875   0
1208.672   0.0493   0.1758   0.6834   0
1208.731   0.0859   0.1792   0.6793   0
1208.791   0.1594   0.1862   0.6751   0
1208.851   0.1783   0.1873   0.6708   0
1208.911   0.2335   0.1920   0.6664   0
1208.971   0.3987   0.2059   0.6620   0
1209.031   0.5089   0.2137   0.6574   0
1209.090   0.5633   0.2171   0.6528   0
1209.150   0.3792   0.2045   0.6481   0
1209.210   0.4888   0.2123   0.6433   0
1209.270   0.4886   0.2125   0.6385   0
1209.330   0.5980   0.2203   0.6335   0
1209.390   0.5253   0.2148   0.6284   0
1209.449   0.5435   0.2164   0.6233   0
1209.509   0.4891   0.2122   0.6180   0
1209.569   0.4890   0.2123   0.6127   0
1209.629   0.5262   0.2148   0.6072   0
1209.689   0.5632   0.2176   0.6017   0
1209.748   0.5445   0.2165   0.5960   0
1209.808   0.6904   0.2257   0.5903   0
1209.868   0.7998   0.2332   0.5844   1
1209.928   0.5802   0.2181   0.5784   1
1209.988   0.4322   0.2076   0.5724   1
1210.047   0.5961   0.2197   0.5662   1
1210.107   0.5415   0.2159   0.5598   1
1210.167   0.5236   0.2138   0.5534   1
1210.227   0.3232   0.1988   0.5468   1
1210.287   0.4692   0.2102   0.5402   1
1210.347   0.4873   0.2113   0.5334   1
1210.406   0.5071   0.2126   0.5264   1
1210.466   0.6191   0.2222   0.5193   1
1210.526   0.4185   0.2085   0.5122   1
1210.586   0.3973   0.2067   0.5048   1
1210.646   0.5248   0.2158   0.4974   1
1210.706   0.4823   0.2123   0.4898   1
1210.765   0.4507   0.2108   0.4821   1
1210.825   0.2993   0.1988   0.4742   1
1210.885   0.4251   0.2091   0.4662   1
1210.945   0.5010   0.2149   0.4580   1
1211.005   0.3385   0.2017   0.4497   1
1211.064   0.5084   0.2140   0.4413   1
1211.124   0.3772   0.2045   0.4327   1
1211.184   0.3997   0.2073   0.4240   1
1211.244   0.5057   0.2131   0.4151   1
1211.304   0.5325   0.2143   0.4061   1
1211.364   0.3767   0.2022   0.3970   1
1211.423   0.3590   0.2009   0.3877   1
1211.483   0.4315   0.2067   0.3782   1
1211.543   0.2859   0.1949   0.3687   1
1211.603   0.1949   0.1871   0.3590   1
1211.663   0.1951   0.1870   0.3491   1
1211.723   0.3767   0.2017   0.3391   1
1211.782   0.3576   0.2002   0.3290   1
1211.842   0.3035   0.1961   0.3188   1
1211.902   0.2493   0.1917   0.3084   1
1211.962   0.1407   0.1821   0.2980   1
1212.022   0.2494   0.1914   0.2874   1
1212.081   0.1770   0.1852   0.2768   1
1212.141   0.3221   0.1973   0.2660   1
1212.201   0.2133   0.1881   0.2552   1
1212.261   0.1951   0.1866   0.2444   1
1212.321   0.1220   0.1799   0.2335   1
1212.380   0.2487   0.1915   0.2225   1
1212.440   0.2485   0.1909   0.2115   1
1212.500   0.3030   0.1955   0.2006   1
1212.560   0.0872   0.1764   0.1896   1
1212.620   0.1403   0.1814   0.1787   1
1212.680   0.0503   0.1729   0.1679   1
1212.739   0.1041   0.1779   0.1571   1
1212.799   0.0855   0.1758   0.1465   1
1212.859   0.1031   0.1778   0.1360   1
1212.919   0.1211   0.1795   0.1256   1
1212.979   0.0661   0.1743   0.1155   1
1213.039   0.0484   0.1726   0.1056   1
1213.098   0.1204   0.1792   0.0960   1
1213.158   0.1020   0.1777   0.0867   1
1213.218   0.0662   0.1742   0.0777   1
1213.278   0.0303   0.1706   0.0692   1
1213.338   0.0402   0.1589   0.0610   1
1213.397   0.1008   0.1774   0.0533   0
1213.457   0.1007   0.1771   0.0461   0
1213.517   0.1001   0.1773   0.0394   0
1213.577   0.0656   0.1740   0.0332   0
1213.637   0.0499   0.1731   0.0276   0
1213.697   0.0684   0.1750   0.0226   0
1213.756   0.0692   0.1749   0.0181   0
1213.816   0.0121   0.1690   0.0142   0
1213.876   0.0118   0.1693   0.0109   0
1213.936   0.0885   0.1771   0.0082   0
1213.996   0.0493   0.1724   0.0059   0
1214.055   0.1030   0.1773   0.0041   0
1214.115   0.0459   0.1716   0.0027   0
1214.175   0.0270   0.1698   0.0017   0
1214.235   0.0625   0.1732   0.0009   0
1214.295   0.0606   0.1730   0.0004   0
1214.355   0.0240   0.1695   0.0001   0
1214.414   0.1105   0.1776   0.0000   0
1214.474   0.1967   0.1851   0.0000   0
1214.534   0.2446   0.1887   0.0000   0
1214.594   0.3237   0.1950   -0.0000   0
1214.654   0.3079   0.1933   -0.0000   0
1214.714   0.6567   0.2158   0.0000   0
1214.773   3.2606   0.3351   0.0000   0
1214.833   10.3092   0.5181   0.0000   0
1214.893   21.3768   0.7052   -0.0000   0
1214.953   34.4214   0.8698   0.0000   0
1215.013   50.5056   1.0338   0.0000   0
1215.072   70.5908   1.2063   0.0000   0
1215.132   89.0685   1.3438   -0.0000   0
1215.192   105.1574   1.4524   0.0000   0
1215.252   126.1243   1.5817   -0.0000   0
1215.312   142.2980   1.6743   -0.0000   0
1215.371   160.1617   1.7710   0.0000   0
1215.431   173.6603   1.8402   0.0000   0
1215.491   175.4628   1.8489   0.0000   0
1215.551   179.5126   1.8690   0.0000   0
1215.611   174.2186   1.8422   0.0000   0
1215.671   170.2478   1.8217   -0.0000   0
1215.730   170.3288   1.8218   -0.0000   0
1215.790   162.3441   1.7805   -0.0000   0
1215.850   145.6962   1.6909   0.0000   0
1215.910   131.2177   1.6086   0.0000   0
1215.970   115.7734   1.5413   0.0000   0
1216.030   93.9491   1.4068   0.0000   0
1216.089   69.2784   1.2170   -0.0000   0
1216.149   53.4187   1.0802   -0.0000   0
1216.209   38.5310   0.9312   0.0000   0
1216.269   24.1703   0.7591   -0.0000   0
1216.329   15.1320   0.6147   -0.0000   0
1216.388   6.8025   0.4404   -0.0000   0
1216.448   1.3960   0.2537   -0.0000   0
1216.508   0.2815   0.1887   -0.0000   0
1216.568   0.2517   0.1866   -0.0000   0
1216.628   0.2829   0.1909   -0.0000   0
1216.688   0.3275   0.1939   0.0000   0
1216.747   0.1718   0.1808   0.0000   0
1216.807   0.0687   0.1722   -0.0000   0
1216.867   0.0863   0.1736   0.0000   0
1216.927   0.0164   0.1673   0.0000   0
1216.987   0.0542   0.1704   0.0000   0
1217.047   0.0912   0.1735   -0.0000   0
1217.106   0.0570   0.1705   -0.0000   0
1217.166   0.0400   0.1687   0.0000   0
1217.226   0.0041   0.1655   -0.0000   1
1217.286   0.0220   0.1671   -0.0000   1
1217.346   0.0228   0.1671   0.0000   1
1217.405   0.0231   0.1670   0.0000   1
1217.465   0.0228   0.1669   -0.0000   1
1217.525   0.0053   0.1651   0.0000   1
1217.585   0.0227   0.1669   -0.0000   1
1217.645   0.0412   0.1684   0.0000   1
1217.704   -0.0106   0.1633   -0.0000   1
1217.764   0.0074   0.1651   0.0000   1
1217.824   0.0254   0.1666   -0.0000   1
1217.884   0.0084   0.1650   -0.0000   1
1217.944   0.0084   0.1649   0.0000   1
1218.004   -0.0087   0.1631   0.0000   1
1218.063   0.0089   0.1647   0.0000   1
1218.123   -0.0086   0.1630   0.0000   1
1218.183   0.0447   0.1681   0.0000   1
1218.243   -0.0068   0.1629   0.0000   1
1218.303   0.0463   0.1681   0.0000   1
1218.363   0.0279   0.1663   0.0000   1
1218.422   -0.0068   0.1628   0.0000   1
1218.482   0.0108   0.1645   0.0000   1
1218.542   0.0117   0.1644   0.0000   1
1218.602   0.0459   0.1678   0.0000   1
1218.662   0.0104   0.1644   0.0001   1
1218.721   0.0100   0.1643   0.0002   1
1218.781   0.0282   0.1660   0.0005   1
1218.841   0.0460   0.1675   0.0008   1
1218.901   0.0303   0.1666   0.0014   1
1218.961   0.0121   0.1648   0.0023   1
1219.021   0.0306   0.1665   0.0034   1
1219.080   0.0672   0.1702   0.0050   1
1219.140   0.0315   0.1667   0.0070   1
1219.200   0.0857   0.1722   0.0094   1
1219.260   0.0675   0.1701   0.0124   1
1219.320   0.0302   0.1662   0.0160   1
1219.379   0.0303   0.1668   0.0201   1
1219.439   0.1037   0.1739   0.0248   1
1219.499   0.1390   0.1766   0.0300   1
1219.559   0.0122   0.1645   0.0358   1
1219.619   0.0491   0.1682   0.0422   1
1219.679   0.1563   0.1779   0.0491   1
1219.738   0.1000   0.1721   0.0565   1
1219.798   0.1692   0.1780   0.0643   1
1219.858   0.1689   0.1783   0.0726   1
1219.918   0.0641   0.1685   0.0813   1
1219.978   0.1862   0.1795   0.0904   1
1220.037   0.2560   0.1856   0.0997   1
1220.097   0.1338   0.1750   0.1094   1
1220.157   0.2557   0.1850   0.1194   1
1220.217   0.1336   0.1748   0.1295   1
1220.277   0.1856   0.1795   0.1399   1
1220.337   0.0986   0.1713   0.1504   1
1220.396   0.3076   0.1892   0.1611   1
1220.456   0.1167   0.1729   0.1718   1
1220.516   0.2384   0.1834   0.1827   1
1220.576   0.3250   0.1904   0.1936   1
1220.636   0.2215   0.1819   0.2045   1
1220.695   0.3262   0.1911   0.2154   1
1220.755   0.3268   0.1904   0.2264   1
1220.815   0.5175   0.2057   0.2373   1
1220.875   0.2915   0.1875   0.2482   1
1220.935   0.2912   0.1880   0.2590   1
1220.995   0.4301   0.1992   0.2698   1
1221.054   0.3947   0.1961   0.2805   1
1221.114   0.2728   0.1865   0.2911   1
1221.174   0.2730   0.1857   0.3016   1
1221.234   0.4473   0.1998   0.3120   1
1221.294   0.4471   0.1998   0.3223   1
1221.354   0.3775   0.1947   0.3324   1
1221.413   0.2724   0.1859   0.3425   1
1221.473   0.4109   0.1964   0.3524   1
1221.533   0.4630   0.2012   0.3622   1
1221.593   0.3419   0.1911   0.3718   1
1221.653   0.5322   0.2054   0.3814   1
1221.712   0.4442   0.1990   0.3907   1
1221.772   0.4436   0.1991   0.4000   1
1221.832   0.4100   0.1963   0.4091   1
1221.892   0.3409   0.1906   0.4180   1
1221.952   0.3608   0.1926   0.4268   1
1222.011   0.4384   0.1997   0.4355   1
1222.071   0.4494   0.2012   0.4440   1
1222.131   0.4723   0.2031   0.4524   1
1222.191   0.3781   0.1948   0.4607   1
1222.251   0.4295   0.1995   0.4688   1
1222.311   0.6495   0.2158   0.4767   1
1222.370   0.4679   0.2032   0.4845   1
1222.430   0.4765   0.2019   0.4922   1
1222.490   0.6195   0.2112   0.4998   1
1222.550   0.3417   0.1903   0.5072   1
1222.610   0.4628   0.1999   0.5145   1
1222.670   0.6697   0.2137   0.5216   1
1222.729   0.3598   0.1926   0.5286   1
1222.789   0.5324   0.2045   0.5355   1
1222.849   0.5665   0.2074   0.5423   1
1222.909   0.3595   0.1915   0.5489   1
1222.969   0.5662   0.2068   0.5554   1
1223.028   0.6870   0.2155   0.5618   1
1223.088   0.4966   0.2024   0.5681   1
1223.148   0.8059   0.2228   0.5743   1
1223.208   0.6854   0.2150   0.5803   1
1223.268   0.4791   0.2001   0.5863   1
1223.328   0.6684   0.2133   0.5921   1
1223.387   0.4612   0.1997   0.5978   1
1223.447   0.5470   0.2049   0.6034   1
1223.507   0.4432   0.1975   0.6089   1
1223.567   0.5114   0.2018   0.6144   1
1223.627   0.4251   0.1964   0.6197   1
1223.687   0.4766   0.1995   0.6249   1
1223.746   0.6310   0.2109   0.6300   1
1223.806   0.6485   0.2118   0.6350   1
1223.866   0.6655   0.2127   0.6400   1
1223.926   0.8026   0.2216   0.6448   1
1223.986   0.5627   0.2061   0.6496   1
1224.045   0.6479   0.2118   0.6542   1
1224.105   0.6987   0.2144   0.6588   1
1224.165   0.6470   0.2113   0.6633   1
1224.225   0.5614   0.2061   0.6678   1
1224.285   0.6652   0.2126   0.6721   1
1224.344   0.4651   0.1986   0.6764   1
1224.404   0.7651   0.2204   0.6805   1
1224.464   0.5585   0.2074   0.6847   1
1224.524   0.6125   0.2114   0.6887   1
1224.584   0.7313   0.2185   0.6927   1
1224.644   0.7340   0.2196   0.6966   1
1224.703   0.7911   0.2230   0.7004   1
1224.763   0.7622   0.2205   0.7042   1
1224.823   0.7569   0.2187   0.7079   1
1224.883   0.5436   0.2032   0.7115   1
1224.943   0.6459   0.2103   0.7151   1
1225.003   0.9025   0.2265   0.7186   1
1225.062   0.8156   0.2218   0.7220   1
1225.122   0.5760   0.2052   0.7254   1
1225.182   0.7121   0.2155   0.7288   1
1225.242   0.6100   0.2087   0.7320   1
1225.302   1.0709   0.2366   0.7353   1
1225.361   0.7631   0.2170   0.7384   1
1225.421   0.6095   0.2075   0.7415   1
1225.481   0.8479   0.2229   0.7446   1
1225.541   0.9502   0.2291   0.7476   1
1225.601   1.0006   0.2323   0.7506   1
1225.661   0.9665   0.2294   0.7535   1
1225.720   0.6765   0.2121   0.7563   1
1225.780   0.5748   0.2051   0.7591   1
1225.840   0.6605   0.2109   0.7619   1
1225.900   0.8305   0.2218   0.7646   1
1225.960   0.9159   0.2258   0.7673   1
1226.019   0.9340   0.2284   0.7699   1
1226.079   0.9348   0.2280   0.7725   1
1226.139   0.7966   0.2191   0.7751   1
1226.199   0.9491   0.2288   0.7776   1
1226.259   0.8466   0.2222   0.7801   1
1226.319   0.5912   0.2056   0.7825   1
1226.378   0.7953   0.2190   0.7849   1
1226.438   0.9635   0.2295   0.7873   1
1226.498   0.8104   0.2200   0.7896   1
1226.558   0.8427   0.2219   0.7919   1
1226.618   0.8604   0.2234   0.7941   1
1226.677   0.6564   0.2092   0.7963   0
1226.737   0.7915   0.2190   0.7985   0
1226.797   0.6888   0.2123   0.8006   0
1226.857   0.7919   0.2189   0.8028   0
1226.917   1.0809   0.2360   0.8048   0
1226.977   0.7233   0.2138   0.8069   0
1227.036   0.8078   0.2201   0.8089   0
1227.096   0.7221   0.2139   0.8109   0
1227.156   0.7392   0.2155   0.8128   0
1227.216   0.8604   0.2228   0.8148   0
1227.276   0.6910   0.2133   0.8167   0
1227.335   0.8100   0.2221   0.8185   0
1227.395   0.7463   0.2184   0.8204   0
1227.455   0.6866   0.2140   0.8222   0
1227.515   0.7897   0.2211   0.8240   0
1227.575   0.6278   0.2115   0.8258   0
1227.635   0.8768   0.2280   0.8275   0
1227.694   0.8702   0.2271   0.8292   0
1227.754   0.8040   0.2223   0.8309   0
1227.814   0.6957   0.2151   0.8326   0
1227.874   0.7250   0.2175   0.8342   0
1227.934   0.8154   0.2222   0.8358   0
1227.994   0.6743   0.2125   0.8374   0
1228.053   0.9120   0.2273   0.8390   0
1228.113   0.6268   0.2081   0.8405   0
1228.173   1.0987   0.2362   0.8421   0
1228.233   0.8618   0.2228   0.8436   0
1228.293   0.8274   0.2205   0.8451   0
1228.352   0.7758   0.2170   0.8465   0
1228.412   0.6734   0.2108   0.8480   0
1228.472   0.8091   0.2187   0.8494   0
1228.532   0.7081   0.2132   0.8508   0
1228.592   0.9091   0.2248   0.8522   0
1228.651   0.8401   0.2207   0.8536   0
1228.711   0.7887   0.2179   0.8549   0
1228.771   0.4850   0.1972   0.8562   0
1228.831   0.7891   0.2171   0.8576   0
1228.891   0.8217   0.2188   0.8589   0
1228.951   0.6017   0.2052   0.8601   0
1229.010   0.7544   0.2154   0.8614   0
1229.070   0.4840   0.1972   0.8626   0
1229.130   0.8560   0.2217   0.8639   0
1229.190   0.5858   0.2041   0.8651   0
1229.250   0.7705   0.2162   0.8663   0
1229.310   0.6860   0.2104   0.8675   0
1229.369   0.6700   0.2097   0.8686   0
1229.429   0.8396   0.2193   0.8698   0
1229.489   0.7219   0.2124   0.8709   0
1229.549   0.8059   0.2183   0.8720   0
1229.609   0.6035   0.2052   0.8732   0
1229.668   0.7721   0.2160   0.8742   0
1229.728   0.9069   0.2254   0.8753   0
1229.788   1.0417   0.2320   0.8764   0
1229.848   0.8389   0.2206   0.8774   0
1229.908   0.7545   0.2142   0.8785   0
1229.968   0.5859   0.2031   0.8795   0
1230.027   0.9241   0.2250   0.8805   0
1230.087   0.7057   0.2119   0.8815   0
1230.147   0.6717   0.2091   0.8825   0
1230.207   0.7050   0.2114   0.8835   0
1230.267   0.6356   0.2065   0.8845   0
1230.327   0.6433   0.2075   0.8854   0
1230.386   0.5864   0.2048   0.8864   0
1230.446   0.7541   0.2170   0.8873   0
1230.506   0.7796   0.2191   0.8882   0
1230.566   0.6853   0.2130   0.8891   0
1230.626   0.7883   0.2193   0.8900   0
1230.685   0.8791   0.2253   0.8909   0
1230.745   0.4743   0.1978   0.8918   0
1230.805   0.5547   0.2026   0.8927   0
1230.865   0.8100   0.2184   0.8935   0
1230.925   0.5012   0.1971   0.8944   0
1230.984   0.7518   0.2136   0.8952   0
1231.044   0.6711   0.1932   0.8960   0
1231.104   0.7840   0.2152   0.8968   0
1231.164   0.6506   0.2066   0.8976   0
1231.224   0.6508   0.2074   0.8984   0
1231.284   0.7010   0.2101   0.8992   0
1231.343   0.6342   0.2061   0.9000   0
1231.403   0.4825   0.1954   0.9008   0
1231.463   0.6831   0.2098   0.9015   0
1231.523   0.6505   0.2072   0.9023   0
1231.583   0.4327   0.1917   0.9030   0
1231.643   0.6174   0.2039   0.9038   0
1231.702   0.5663   0.2011   0.9045   0
1231.762   0.4152   0.1910   0.9052   0
1231.822   0.5331   0.1994   0.9059   0
1231.882   0.5328   0.1989   0.9066   0
1231.942   0.4657   0.1943   0.9073   0
1232.001   0.5505   0.2000   0.9080   0
1232.061   0.6513   0.2065   0.9087   0
1232.121   0.3817   0.1875   0.9094   0
1232.181   0.6671   0.2074   0.9101   0
1232.241   0.5835   0.2027   0.9107   0
1232.301   0.6677   0.2080   0.9114   0
1232.360   0.7860   0.2158   0.9120   0
1232.420   0.6692   0.2081   0.9127   0
1232.480   0.5683   0.2012   0.9133   0
1232.540   0.4848   0.1956   0.9139   0
1232.600   0.7372   0.2125   0.9145   0
1232.659   0.6743   0.2078   0.9151   0
1232.719   0.6404   0.2069   0.9157   0
1232.779   0.7521   0.2156   0.9163   0
1232.839   0.7987   0.2193   0.9169   0
1232.899   0.7434   0.2155   0.9175   0
1232.959   0.8227   0.2197   0.9181   0
1233.018   0.6824   0.2103   0.9187   0
1233.078   0.6287   0.2074   0.9192   0
1233.138   0.8538   0.2212   0.9198   0
1233.198   0.5246   0.1989   0.9204   0
1233.258   0.7167   0.2111   0.9209   0
1233.318   0.7836   0.2144   0.9215   0
1233.377   0.5992   0.2030   0.9220   0
1233.437   0.7165   0.2097   0.9225   0
1233.497   0.6659   0.2077   0.9231   0
1233.557   0.5651   0.2003   0.9236   0
1233.617   0.6149   0.2038   0.9241   0
1233.676   0.7828   0.2147   0.9246   0
1233.736   0.5820   0.2016   0.9251   0
1233.796   0.3803   0.1865   0.9256   0
1233.856   0.6315   0.2043   0.9261   0
1233.916   0.7327   0.2106   0.9266   0
1233.975   0.6330   0.2047   0.9271   0
1234.035   0.6330   0.2051   0.9276   0
1234.095   0.8667   0.2200   0.9281   0
1234.155   0.6822   0.2086   0.9285   0
1234.215   0.7157   0.2102   0.9290   0
1234.275   0.7496   0.2120   0.9295   0
1234.334   0.7993   0.2145   0.9299   0
1234.394   0.7155   0.2107   0.9304   0
1234.454   0.6316   0.2050   0.9309   0
1234.514   0.6980   0.2093   0.9313   0
1234.574   0.4793   0.1941   0.9317   0
1234.634   0.7299   0.2107   0.9322   0
1234.693   0.5294   0.1970   0.9326   0
1234.753   0.4450   0.1915   0.9330   0
1234.813   0.4946   0.1943   0.9335   0
1234.873   0.6466   0.2055   0.9339   0
1234.933   0.7614   0.2127   0.9343   0
1234.992   0.6946   0.2088   0.9347   0
1235.052   0.6286   0.2043   0.9351   0
1235.112   0.4951   0.1937   0.9355   0
1235.172   0.5624   0.1990   0.9359   0
1235.232   0.5944   0.2014   0.9363   0
1235.292   0.7280   0.2108   0.9367   0
1235.351   0.5768   0.2007   0.9371   0
1235.411   0.6925   0.2083   0.9375   0
1235.471   0.6259   0.2031   0.9379   0
1235.531   0.6426   0.2044   0.9383   0
1235.591   0.3840   0.1870   0.9387   0
1235.651   0.5638   0.2011   0.9390   0
1235.710   0.6438   0.2075   0.9394   0
1235.770   0.5253   0.1989   0.9398   0
1235.830   0.6827   0.2098   0.9401   0
1235.890   0.6102   0.2049   0.9405   0
1235.950   0.5382   0.1999   0.9409   0
1236.009   0.4698   0.1943   0.9412   0
1236.069   0.4368   0.1924   0.9416   0
1236.129   0.5239   0.1991   0.9419   0
1236.189   0.5088   0.1975   0.9423   0
1236.249   0.4339   0.1913   0.9426   0
1236.308   0.6044   0.2037   0.9429   0
1236.368   0.8316   0.2180   0.9433   0
1236.428   0.6139   0.2036   0.9436   0
1236.488   0.5661   0.1993   0.9439   0
1236.548   0.6289   0.2037   0.9443   0
1236.608   0.5122   0.1955   0.9446   0
1236.667   0.5454   0.1979   0.9449   0
1236.727   0.6445   0.2049   0.9452   0
1236.787   0.5455   0.1971   0.9456   0
1236.847   0.4784   0.1927   0.9459   0
1236.907   0.5785   0.1999   0.9462   0
1236.967   0.5962   0.2013   0.9465   0
1237.026   0.4959   0.1938   0.9468   0
1237.086   0.5626   0.1980   0.9471   0
1237.146   0.5464   0.1981   0.9474   0
1237.206   0.6136   0.2025   0.9477   0
1237.266   0.3642   0.1842   0.9480   0
1237.325   0.3811   0.1853   0.9483   0
1237.385   0.3812   0.1853   0.9486   0
1237.445   0.4629   0.1916   0.9489   0
1237.505   0.4956   0.1936   0.9491   0
1237.565   0.5954   0.2009   0.9494   0
1237.625   0.4112   0.1874   0.9497   0
1237.684   0.5277   0.1958   0.9500   0
1237.744   0.4606   0.1911   0.9503   0
1237.804   0.5271   0.1959   0.9505   0
1237.864   0.6115   0.2019   0.9508   0
1237.924   0.5116   0.1950   0.9511   0
1237.983   0.5613   0.1979   0.9513   0
1238.043   0.5281   0.1958   0.9516   0
1238.103   0.3110   0.1790   0.9519   0
1238.163   0.5449   0.1974   0.9521   0
1238.223   0.6782   0.2064   0.9524   0
1238.283   0.4942   0.1937   0.9527   0
1238.342   0.5607   0.1983   0.9529   0
1238.402   0.4938   0.1934   0.9532   0
1238.462   0.3442   0.1820   0.9534   0
1238.522   0.5276   0.1960   0.9537   0
1238.582   0.3442   0.1818   0.9539   0
1238.641   0.5782   0.1994   0.9541   0
1238.701   0.4618   0.1907   0.9544   0
1238.761   0.4969   0.1925   0.9546   0
1238.821   0.3897   0.1864   0.9549   0
1238.881   0.5399   0.1984   0.9551   0
1238.941   0.4918   0.1959   0.9553   0
1239.000   0.6250   0.2036   0.9556   0
1239.060   0.4638   0.1929   0.9558   0
1239.120   0.6728   0.2081   0.9560   0
1239.180   0.8707   0.2189   0.9563   0
1239.240   0.5667   0.1982   0.9565   0
1239.299   0.3939   0.1854   0.9567   0
1239.359   0.4944   0.1932   0.9569   0
1239.419   0.5279   0.1951   0.9572   0
1239.479   0.3937   0.1859   0.9574   0
1239.539   0.4943   0.1936   0.9576   0
1239.599   0.5939   0.1994   0.9578   0
1239.658   0.7940   0.2128   0.9580   0
1239.718   0.5782   0.1979   0.9582   0
1239.778   0.7280   0.2078   0.9585   0
1239.838   0.4776   0.1916   0.9587   0
1239.898   0.5430   0.1956   0.9589   0
1239.958   0.6924   0.2070   0.9591   0
1240.017   0.5929   0.1994   0.9593   0
1240.077   0.4768   0.1914   0.9595   0
1240.137   0.5275   0.1952   0.9597   0
1240.197   0.5941   0.1996   0.9599   0
1240.257   0.6773   0.2053   0.9601   0
1240.316   0.6105   0.2003   0.9603   0
1240.376   0.5436   0.1962   0.9605   0
1240.436   0.5937   0.1992   0.9607   0
1240.496   0.5266   0.1940   0.9609   0
1240.556   0.7594   0.2108   0.9611   0
1240.615   0.7435   0.2092   0.9613   0
1240.675   0.5612   0.1966   0.9614   0
1240.735   0.6440   0.2033   0.9616   0
1240.795   0.7601   0.2100   0.9618   0
1240.855   0.7098   0.2064   0.9620   0
1240.915   0.6269   0.2014   0.9622   0
1240.974   0.6267   0.2016   0.9624   0
1241.034   0.5108   0.1928   0.9625   0
1241.094   0.5607   0.1977   0.9627   0
1241.154   0.8353   0.2158   0.9629   0
1241.214   1.1304   0.2354   0.9631   0
1241.274   0.7198   0.2113   0.9633   0
1241.333   0.9079   0.2221   0.9634   0
1241.393   0.7559   0.2109   0.9636   0
1241.453   0.7958   0.2148   0.9638   0
1241.513   0.9257   0.2228   0.9639   0
1241.573   0.9606   0.2226   0.9641   0
1241.632   0.8594   0.2156   0.9643   0
1241.692   0.8094   0.2123   0.9645   0
1241.752   0.7757   0.2112   0.9646   0
1241.812   0.8583   0.2163   0.9648   0
1241.872   0.9249   0.2199   0.9650   0
1241.932   0.9249   0.2194   0.9651   0
1241.991   0.7412   0.2087   0.9653   0
1242.051   0.8892   0.2175   0.9654   0
1242.111   0.8714   0.2163   0.9656   0
1242.171   0.8394   0.2139   0.9658   0
1242.231   0.6739   0.2042   0.9659   0
1242.291   0.7071   0.2049   0.9661   0
1242.350   0.7734   0.2106   0.9662   0
1242.410   0.7398   0.2081   0.9664   0
1242.470   0.7239   0.2064   0.9665   0
1242.530   0.8081   0.2131   0.9667   0
1242.590   0.8088   0.2128   0.9668   0
1242.649   0.8575   0.2157   0.9670   0
1242.709   0.8718   0.2163   0.9671   0
1242.769   0.8885   0.2167   0.9673   0
1242.829   0.7413   0.2077   0.9674   0
1242.889   0.6426   0.2016   0.9676   0
1242.948   1.0070   0.2247   0.9677   0
1243.008   1.2058   0.2353   0.9679   0
1243.068   0.9910   0.2236   0.9680   0
1243.128   0.8722   0.2164   0.9681   0
1243.188   0.8215   0.2130   0.9683   0
1243.248   1.1682   0.2331   0.9684   0
1243.307   1.3002   0.2399   0.9686   0
1243.367   1.0359   0.2251   0.9687   0
1243.427   0.9693   0.2217   0.9688   0
1243.487   0.9873   0.2229   0.9690   0
1243.547   1.0727   0.2279   0.9691   0
1243.607   1.2044   0.2349   0.9692   0
1243.666   1.3039   0.2404   0.9694   0
1243.726   1.0887   0.2280   0.9695   0
1243.786   1.0066   0.2243   0.9696   0
1243.846   1.1058   0.2303   0.9698   0
1243.906   1.1192   0.2297   0.9699   0
1243.965   1.2510   0.2371   0.9700   0
1244.025   1.0208   0.2247   0.9702   0
1244.085   0.9627   0.2239   0.9703   0
1244.145   1.3938   0.2488   0.9704   0
1244.205   0.9974   0.2270   0.9705   0
1244.265   0.7753   0.2126   0.9707   0
1244.324   0.8939   0.2195   0.9708   0
1244.384   0.9981   0.2263   0.9709   0
1244.444   1.1572   0.2363   0.9710   0
1244.504   0.9772   0.2268   0.9712   0
1244.564   1.2375   0.2407   0.9713   0
1244.624   1.2942   0.2432   0.9714   0
1244.683   1.2794   0.2424   0.9715   0
1244.743   1.2710   0.2423   0.9717   0
1244.803   1.0568   0.2305   0.9718   0
1244.863   1.0068   0.2238   0.9719   0
1244.923   1.0344   0.2254   0.9720   0
1244.982   1.1662   0.2325   0.9721   0
1245.042   0.9509   0.2204   0.9722   0
1245.102   1.2148   0.2347   0.9724   0
1245.162   1.0665   0.2263   0.9725   0
1245.222   1.4792   0.2487   0.9726   0
1245.281   1.2643   0.2369   0.9727   0
1245.341   1.0664   0.2274   0.9728   0
1245.401   1.3463   0.2412   0.9729   0
1245.461   1.3629   0.2429   0.9730   0
1245.521   1.3461   0.2413   0.9731   0
1245.581   1.2751   0.2376   0.9732   0
1245.640   1.5051   0.2492   0.9734   0
1245.700   1.4729   0.2477   0.9735   0
1245.760   1.2913   0.2386   0.9736   0
1245.820   1.1092   0.2287   0.9737   0
1245.880   1.2572   0.2370   0.9738   0
1245.940   1.6193   0.2546   0.9739   0
1245.999   1.0104   0.2235   0.9740   0
1246.059   1.3894   0.2437   0.9741   0
1246.119   1.0937   0.2271   0.9742   0
1246.179   1.3742   0.2422   0.9743   0
1246.239   1.3082   0.2395   0.9744   0
1246.298   1.0612   0.2259   0.9745   0
1246.358   1.3239   0.2402   0.9746   0
1246.418   1.2915   0.2377   0.9747   0
1246.478   1.0945   0.2281   0.9748   0
1246.538   1.0957   0.2277   0.9749   0
1246.598   1.1303   0.2290   0.9750   0
1246.657   1.4762   0.2477   0.9751   0
1246.717   1.0657   0.2263   0.9752   0
1246.777   1.2803   0.2377   0.9753   0
1246.837   1.2481   0.2364   0.9754   0
1246.897   1.1655   0.2317   0.9755   0
1246.956   1.2309   0.2352   0.9756   0
1247.016   1.2138   0.2347   0.9757   0
1247.076   1.0156   0.2234   0.9758   0
1247.136   1.1630   0.2318   0.9759   0
1247.196   0.9154   0.2195   0.9760   0
1247.256   0.8430   0.2161   0.9761   0
1247.315   1.0395   0.2286   0.9762   0
1247.375   1.0310   0.2274   0.9762   0
1247.435   0.9991   0.2252   0.9763   0
1247.495   1.0404   0.2287   0.9764   0
1247.555   1.2287   0.2393   0.9765   0
1247.615   0.9026   0.2180   0.9766   0
1247.674   0.9964   0.2222   0.9767   0
1247.734   0.8155   0.2115   0.9768   0
1247.794   1.1276   0.2293   0.9769   0
1247.854   1.1295   0.2294   0.9770   0
1247.914   1.0470   0.2246   0.9770   0
1247.973   0.9981   0.2225   0.9771   0
1248.033   0.8982   0.2170   0.9772   0
1248.093   0.8832   0.2155   0.9773   0
1248.153   0.9012   0.2172   0.9774   0
1248.213   0.9999   0.2223   0.9775   0
1248.272   0.7524   0.2072   0.9776   0
1248.332   1.2110   0.2335   0.9776   0
1248.392   0.9644   0.2205   0.9777   0
1248.452   0.8000   0.2100   0.9778   0
1248.512   0.9309   0.2185   0.9779   0
1248.572   0.8503   0.2137   0.9780   0
1248.631   0.8996   0.2166   0.9781   0
1248.691   0.8123   0.1947   0.9781   0
1248.751   0.8169   0.2118   0.9782   0
1248.811   0.6525   0.2002   0.9783   0
1248.871   0.8170   0.2113   0.9784   0
1248.931   0.8507   0.2136   0.9785   0
1248.990   0.6699   0.2019   0.9785   0
1249.050   0.7669   0.2079   0.9786   0
1249.110   0.4710   0.1885   0.9787   0
1249.170   0.6187   0.1982   0.9788   0
1249.230   0.8321   0.2126   0.9788   0
1249.289   0.7172   0.2046   0.9789   0
1249.349   0.8326   0.2116   0.9790   0
1249.409   0.7020   0.2038   0.9791   0
1249.469   0.6852   0.2026   0.9791   0
1249.529   0.5363   0.1938   0.9792   0
1249.589   0.7728   0.2104   0.9793   0
1249.648   0.6765   0.2049   0.9794   0
1249.708   0.6326   0.2017   0.9794   0
1249.768   1.0089   0.2252   0.9795   0
1249.828   0.8141   0.2142   0.9796   0
1249.888   0.8788   0.2184   0.9797   0
1249.948   0.8525   0.2136   0.9797   0
1250.007   0.9627   0.2191   0.9798   0
1250.067   0.8312   0.2114   0.9799   0
1250.127   0.8628   0.2140   0.9799   0
1250.187   0.8127   0.2105   0.9800   0
1250.247   1.0904   0.2269   0.9801   0
1250.306   0.6162   0.1982   0.9802   0
1250.366   0.8454   0.2131   0.9802   0
1250.426   0.9274   0.2166   0.9803   0
1250.486   0.6816   0.2019   0.9804   0
1250.546   0.5338   0.1918   0.9804   0
1250.605   0.6799   0.2018   0.9805   0
1250.665   0.7783   0.2084   0.9806   0
1250.725   0.7957   0.2084   0.9806   0
1250.785   0.9761   0.2203   0.9807   0
1250.845   0.9444   0.2174   0.9808   0
1250.905   1.1090   0.2285   0.9808   0
1250.964   0.8806   0.2144   0.9809   0
1251.024   0.7980   0.2091   0.9810   0
1251.084   1.1449   0.2301   0.9810   0
1251.144   1.1280   0.2285   0.9811   0
1251.204   0.8648   0.2139   0.9812   0
1251.264   0.9304   0.2175   0.9812   0
1251.323   0.9288   0.2178   0.9813   0
1251.383   1.0609   0.2245   0.9814   0
1251.443   0.9295   0.2169   0.9814   0
1251.503   1.0276   0.2234   0.9815   0
1251.563   1.0117   0.2220   0.9815   0
1251.622   0.8483   0.2128   0.9816   0
1251.682   0.9473   0.2180   0.9817   0
1251.742   0.8977   0.2157   0.9817   0
1251.802   0.7996   0.2095   0.9818   0
1251.862   0.8659   0.2135   0.9819   0
1251.922   0.7326   0.2056   0.9819   0
1251.981   0.7806   0.2079   0.9820   0
1252.041   0.7476   0.2065   0.9820   0
1252.101   0.7964   0.2086   0.9821   0
1252.161   0.5182   0.1905   0.9822   0
1252.221   0.7640   0.2068   0.9822   0
1252.280   0.8125   0.2100   0.9823   0
1252.340   0.6816   0.2019   0.9823   0
1252.400   0.9302   0.2169   0.9824   0
1252.460   0.9006   0.2177   0.9825   0
1252.520   0.7211   0.2064   0.9825   0
1252.580   0.9108   0.2184   0.9826   0
1252.639   0.9553   0.2216   0.9826   0
1252.699   0.7894   0.2114   0.9827   0
1252.759   0.6040   0.1992   0.9827   0
1252.819   1.0323   0.2269   0.9828   0
1252.879   0.8237   0.2133   0.9829   0
1252.938   0.8499   0.2152   0.9829   0
1252.998   0.8030   0.2115   0.9830   0
1253.058   0.8866   0.2162   0.9830   0
1253.118   0.9061   0.2178   0.9831   0
1253.178   0.8596   0.2162   0.9831   0
1253.238   0.9467   0.2203   0.9832   0
1253.297   0.8172   0.2100   0.9832   0
1253.357   0.7311   0.2048   0.9833   0
1253.417   0.9285   0.2167   0.9833   0
1253.477   0.7648   0.2075   0.9834   0
1253.537   0.9782   0.2198   0.9835   0
1253.596   0.8151   0.2098   0.9835   0
1253.656   0.5192   0.1903   0.9836   0
1253.716   0.7000   0.2029   0.9836   0
1253.776   0.3882   0.1812   0.9837   0
1253.836   0.6022   0.1955   0.9837   0
1253.896   0.5040   0.1891   0.9838   0
1253.955   0.6680   0.1999   0.9838   0
1254.015   0.7499   0.2058   0.9839   0
1254.075   0.6679   0.2010   0.9839   0
1254.135   0.7828   0.2079   0.9840   0
1254.195   0.9147   0.2149   0.9840   0
1254.255   0.8488   0.2118   0.9841   0
1254.314   0.9472   0.2176   0.9841   0
1254.374   0.6686   0.2007   0.9842   0
1254.434   0.7668   0.2072   0.9842   0
1254.494   0.9475   0.2183   0.9843   0
1254.554   0.7837   0.2069   0.9843   0
1254.613   0.9640   0.2188   0.9844   0
1254.673   0.9646   0.2189   0.9844   0
1254.733   0.8003   0.2090   0.9845   0
1254.793   1.0792   0.2251   0.9845   0
1254.853   0.9988   0.2209   0.9846   0
1254.912   0.8992   0.2143   0.9846   0
1254.972   0.7172   0.2030   0.9847   0
1255.032   0.9980   0.2212   0.9847   0
1255.092   0.8179   0.2101   0.9848   0
1255.152   0.7682   0.2065   0.9848   0
1255.212   0.5545   0.1930   0.9848   0
1255.271   0.6205   0.1965   0.9849   0
1255.331   0.7360   0.2048   0.9849   0
1255.391   0.5058   0.1896   0.9850   0
1255.451   0.5223   0.1902   0.9850   0
1255.511   0.4402   0.1849   0.9851   0
1255.571   0.4462   0.1853   0.9851   0
1255.630   0.4933   0.1896   0.9852   0
1255.690   0.6844   0.2035   0.9852   0
1255.750   0.6004   0.1980   0.9853   0
1255.810   0.6858   0.2043   0.9853   0
1255.870   0.4947   0.1904   0.9853   0
1255.929   0.6211   0.2003   0.9854   0
1255.989   0.3214   0.1767   0.9854   0
1256.049   0.7066   0.2033   0.9855   0
1256.109   0.7372   0.2049   0.9855   0
1256.169   0.8028   0.2092   0.9856   0
1256.229   0.7697   0.2069   0.9856   0
1256.288   0.7701   0.2069   0.9857   0
1256.348   0.8035   0.2090   0.9857   0
1256.408   0.9353   0.2170   0.9857   0
1256.468   0.7047   0.2029   0.9858   0
1256.528   0.9850   0.2200   0.9858   0
1256.588   0.9207   0.2170   0.9859   1
1256.647   1.0522   0.2245   0.9859   1
1256.707   1.1183   0.2274   0.9859   1
1256.767   0.8056   0.2085   0.9860   1
1256.827   0.7392   0.2042   0.9860   1
1256.887   0.8222   0.2102   0.9861   1
1256.946   1.0378   0.2234   0.9861   1
1257.006   0.9217   0.2157   0.9862   1
1257.066   0.8062   0.2096   0.9862   1
1257.126   0.9876   0.2207   0.9862   1
1257.186   1.0872   0.2260   0.9863   1
1257.245   1.0214   0.2226   0.9863   1
1257.305   0.8398   0.2113   0.9864   1
1257.365   0.6907   0.2023   0.9864   1
1257.425   0.9206   0.2164   0.9864   1
1257.485   1.1354   0.2288   0.9865   1
1257.545   0.9208   0.2162   0.9865   1
1257.604   0.8872   0.2142   0.9866   1
1257.664   1.2014   0.2312   0.9866   1
1257.724   0.7891   0.2077   0.9866   1
1257.784   0.8389   0.2109   0.9867   1
1257.844   0.9881   0.2209   0.9867   1
1257.904   0.7928   0.2089   0.9867   1
1257.963   1.0450   0.2261   0.9868   1
1258.023   0.8963   0.2172   0.9868   1
1258.083   0.7936   0.2120   0.9869   1
1258.143   1.0511   0.2269   0.9869   1
1258.203   0.7374   0.2070   0.9869   1
1258.262   1.1446   0.2329   0.9870   1
1258.322   0.8098   0.2119   0.9870   1
1258.382   0.7500   0.2058   0.9870   1
1258.442   0.9680   0.2188   0.9871   1
1258.502   0.9853   0.2196   0.9871   1
1258.562   0.8862   0.2142   0.9872   1
1258.621   0.8197   0.2100   0.9872   1
1258.681   0.9366   0.2166   0.9872   1
1258.741   0.7547   0.2052   0.9873   1
1258.801   0.9870   0.2199   0.9873   1
1258.861   0.9214   0.2166   0.9873   1
1258.920   0.8050   0.2081   0.9874   1
1258.980   0.7879   0.2073   0.9874   1
1259.040   0.9702   0.2189   0.9874   1
1259.100   0.6551   0.1991   0.9875   1
1259.160   0.9050   0.2160   0.9875   0
1259.220   0.8722   0.2133   0.9875   0
1259.279   0.6395   0.1980   0.9876   0
1259.339   0.6575   0.1992   0.9876   0
1259.399   0.4600   0.1858   0.9877   0
1259.459   0.5097   0.1886   0.9877   0
1259.519   0.2773   0.1710   0.9877   0
1259.578   0.4094   0.1817   0.9878   0
1259.638   0.5252   0.1898   0.9878   0
1259.698   0.5083   0.1880   0.9878   0
1259.758   0.5254   0.1903   0.9879   0
1259.818   0.5919   0.1950   0.9879   0
1259.878   0.3934   0.1799   0.9879   0
1259.937   0.5098   0.1885   0.9880   0
1259.997   0.4933   0.1875   0.9880   0
1260.057   0.3780   0.1795   0.9880   0
1260.117   0.2125   0.1648   0.9881   0
1260.177   0.2620   0.1694   0.9881   0
1260.236   0.1295   0.1578   0.9881   0
1260.296   -0.0034   0.1443   0.9882   0
1260.356   0.0791   0.1529   0.9882   0
1260.416   0.0290   0.1476   0.9882   0
1260.476   0.0296   0.1476   0.9882   0
1260.536   0.0295   0.1478   0.9883   0
1260.595   0.0458   0.1495   0.9883   0
1260.655   -0.0035   0.1442   0.9883   0
1260.715   0.0626   0.1512   0.9884   0
1260.775   0.1452   0.1592   0.9884   0
1260.835   0.1829   0.1633   0.9884   0
1260.895   0.2393   0.1687   0.9885   0
1260.954   0.3951   0.1821   0.9885   0
1261.014   0.3099   0.1754   0.9885   0
1261.074   0.2220   0.1671   0.9886   0
1261.134   0.4115   0.1834   0.9886   0
1261.194   0.4837   0.1892   0.9886   0
1261.253   0.3373   0.1756   0.9887   0
1261.313   0.4435   0.1851   0.9887   0
1261.373   0.4652   0.1883   0.9887   0
1261.433   0.4505   0.1868   0.9887   0
1261.493   0.5565   0.1949   0.9888   0
1261.552   0.2941   0.1732   0.9888   0
1261.612   0.4135   0.1837   0.9888   0
1261.672   0.3923   0.1813   0.9889   0
1261.732   0.3204   0.1743   0.9889   0
1261.792   0.0791   0.1525   0.9889   0
1261.852   0.1449   0.1587   0.9889   0
1261.911   0.0455   0.1493   0.9890   0
1261.971   0.0130   0.1459   0.9890   0
1262.031   0.0138   0.1459   0.9890   0
1262.091   0.0309   0.1476   0.9891   0
1262.151   0.0304   0.1476   0.9891   0
1262.211   0.0473   0.1493   0.9891   0
1262.270   0.0141   0.1458   0.9891   0
1262.330   -0.0030   0.1440   0.9892   0
1262.390   0.0128   0.1458   0.9892   0
1262.450   0.0292   0.1475   0.9892   0
1262.510   0.0129   0.1458   0.9893   0
1262.569   0.0624   0.1509   0.9893   0
1262.629   0.1280   0.1575   0.9893   0
1262.689   0.0780   0.1525   0.9893   0
1262.749   0.1600   0.1602   0.9894   0
1262.809   0.1765   0.1618   0.9894   0
1262.869   0.5071   0.1881   0.9894   0
1262.928   0.4073   0.1813   0.9895   0
1262.988   0.5389   0.1903   0.9895   0
1263.048   0.8022   0.2084   0.9895   0
1263.108   0.6867   0.2006   0.9895   0
1263.168   1.0177   0.2201   0.9896   0
1263.228   0.6050   0.1948   0.9896   0
1263.287   0.6706   0.1994   0.9896   0
1263.347   0.7702   0.2057   0.9896   0
1263.407   0.7701   0.2067   0.9897   0
1263.467   0.9179   0.2151   0.9897   0
1263.527   0.8847   0.2127   0.9897   0
1263.586   0.7692   0.2061   0.9897   0
1263.646   0.7690   0.2065   0.9898   1
1263.706   0.8523   0.2110   0.9898   1
1263.766   0.9347   0.2164   0.9898   1
1263.826   0.9677   0.2179   0.9898   1
1263.885   1.1156   0.2264   0.9899   1
1263.945   0.8499   0.2115   0.9899   1
1264.005   0.8492   0.2112   0.9899   1
1264.065   0.8735   0.2142   0.9899   1
1264.125   0.8055   0.2108   0.9900   1
1264.185   0.8450   0.2129   0.9900   1
1264.244   0.8814   0.2161   0.9900   1
1264.304   1.0368   0.2250   0.9900   1
1264.364   1.1047   0.2289   0.9901   1
1264.424   0.8520   0.2123   0.9901   1
1264.484   1.1193   0.2277   0.9901   1
1264.544   0.9144   0.2144   0.9901   1
1264.603   0.9308   0.2160   0.9902   1
1264.663   0.9642   0.2173   0.9902   1
1264.723   0.8811   0.2130   0.9902   1
1264.783   0.9133   0.2149   0.9902   1
1264.843   1.0277   0.2208   0.9903   1
1264.902   0.8653   0.2119   0.9903   1
1264.962   0.9321   0.2157   0.9903   1
1265.022   0.8988   0.2138   0.9903   1
1265.082   1.1126   0.2262   0.9904   1
1265.142   0.9308   0.2154   0.9904   1
1265.202   0.9631   0.2177   0.9904   1
1265.261   1.0946   0.2248   0.9904   1
1265.321   1.1099   0.2256   0.9905   1
1265.381   1.0432   0.2216   0.9905   1
1265.441   0.9936   0.2189   0.9905   1
1265.501   0.9281   0.2151   0.9905   1
1265.560   0.8442   0.2095   0.9906   1
1265.620   0.9918   0.2188   0.9906   1
1265.680   0.7939   0.2067   0.9906   1
1265.740   0.8923   0.2130   0.9906   1
1265.800   0.9083   0.2140   0.9906   1
1265.860   1.0065   0.2201   0.9907   1
1265.919   0.9087   0.2141   0.9907   1
1265.979   0.7118   0.2016   0.9907   1
1266.039   0.7782   0.2051   0.9907   1
1266.099   0.5825   0.1933   0.9908   1
1266.159   1.0255   0.2209   0.9908   1
1266.219   0.9766   0.2181   0.9908   1
1266.278   0.7310   0.2026   0.9908   1
1266.338   0.9748   0.2179   0.9908   1
1266.398   0.8986   0.1974   0.9909   1
1266.458   0.8129   0.2120   0.9909   1
1266.518   0.8747   0.2170   0.9909   1
1266.577   0.7806   0.2117   0.9909   1
1266.637   0.7488   0.2104   0.9910   1
1266.697   0.9130   0.2208   0.9910   1
1266.757   0.6623   0.2021   0.9910   1
1266.817   0.7446   0.2059   0.9910   1
1266.876   0.9576   0.2170   0.9910   1
1266.936   1.0213   0.2205   0.9911   1
1266.996   0.7619   0.2058   0.9911   1
1267.056   0.8432   0.2087   0.9911   1
1267.116   0.9088   0.2144   0.9911   1
1267.176   0.8591   0.2107   0.9911   1
1267.235   0.6633   0.1987   0.9912   1
1267.295   1.0904   0.2243   0.9912   1
1267.355   0.7927   0.2072   0.9912   1
1267.415   0.7427   0.2037   0.9912   1
1267.475   0.9385   0.2152   0.9912   1
1267.535   0.7755   0.2060   0.9913   1
1267.594   1.0680   0.2230   0.9913   1
1267.654   0.8553   0.2106   0.9913   1
1267.714   0.7722   0.2047   0.9913   1
1267.774   1.0012   0.2186   0.9913   1
1267.834   1.1633   0.2281   0.9914   1
1267.893   0.9999   0.2192   0.9914   1
1267.953   1.1466   0.2266   0.9914   1
1268.013   1.0317   0.2210   0.9914   1
1268.073   0.8530   0.2102   0.9914   1
1268.133   0.9337   0.2150   0.9915   1
1268.193   0.9330   0.2157   0.9915   1
1268.252   0.8520   0.2108   0.9915   1
1268.312   0.9989   0.2188   0.9915   1
1268.372   0.8050   0.2077   0.9915   1
1268.432   0.7570   0.2040   0.9916   1
1268.492   0.8368   0.2088   0.9916   1
1268.552   0.8364   0.2093   0.9916   1
1268.611   0.9330   0.2148   0.9916   1
1268.671   0.8535   0.2100   0.9916   1
1268.731   1.1089   0.2256   0.9917   1
1268.791   0.9530   0.2181   0.9917   1
1268.851   1.0863   0.2283   0.9917   1
1268.910   0.7551   0.2105   0.9917   1
1268.970   0.9178   0.2210   0.9917   1
1269.030   0.7584   0.2087   0.9918   1
1269.090   0.6175   0.1984   0.9918   1
1269.150   0.9386   0.2172   0.9918   1
1269.209   1.0659   0.2247   0.9918   1
1269.269   0.8966   0.2156   0.9918   1
1269.329   0.6575   0.2022   0.9918   1
1269.389   1.1016   0.2316   0.9919   1
1269.449   0.8742   0.2183   0.9919   1
1269.509   0.8559   0.2151   0.9919   1
1269.568   1.0460   0.2256   0.9919   1
1269.628   1.2164   0.2328   0.9919   1
1269.688   0.9696   0.2200   0.9920   1
1269.748   0.9074   0.2159   0.9920   1
1269.808   0.8814   0.2135   0.9920   1
1269.868   0.9070   0.2156   0.9920   1
1269.927   0.8400   0.2118   0.9920   1
1269.987   0.9473   0.2188   0.9920   1
1270.047   1.0371   0.2232   0.9921   1
1270.107   0.8386   0.2107   0.9921   1
1270.167   0.8998   0.2121   0.9921   1
1270.226   0.8667   0.2111   0.9921   1
1270.286   0.8498   0.2106   0.9921   1
1270.346   1.0593   0.2216   0.9922   1
1270.406   0.8976   0.2122   0.9922   1
1270.466   0.8163   0.2078   0.9922   1
1270.526   0.9922   0.2181   0.9922   1
1270.585   1.0082   0.2174   0.9922   1
1270.645   0.8793   0.2107   0.9922   1
1270.705   0.9267   0.2146   0.9923   1
1270.765   0.9263   0.2141   0.9923   1
1270.825   1.1028   0.2244   0.9923   1
1270.884   0.9418   0.2152   0.9923   1
1270.944   1.0212   0.2196   0.9923   1
1271.004   0.9083   0.2133   0.9923   1
1271.064   0.9905   0.2247   0.9924   1
1271.124   0.9811   0.2507   0.9924   1
1271.184   1.2377   0.2676   0.9924   1
1271.243   1.0215   0.2535   0.9924   1
1271.303   0.9572   0.2499   0.9924   1
1271.363   1.0880   0.2578   0.9924   1
1271.423   0.9182   0.2469   0.9925   1
1271.483   0.8713   0.2452   0.9925   1
1271.542   0.8639   0.2472   0.9925   1
1271.602   1.0477   0.2650   0.9925   1
1271.662   0.8024   0.2522   0.9925   1
1271.722   0.6047   0.2368   0.9925   1
1271.782   0.6192   0.2369   0.9926   1
1271.842   0.8044   0.2477   0.9926   1
1271.901   0.8646   0.2473   0.9926   1
1271.961   0.5674   0.2228   0.9926   1
1272.021   1.1629   0.2634   0.9926   1
1272.081   1.0131   0.2542   0.9926   1
1272.141   0.9453   0.2491   0.9926   1
1272.200   1.0045   0.2528   0.9927   1
1272.260   0.6811   0.2297   0.9927   1
1272.320   0.8525   0.2428   0.9927   1
1272.380   1.1111   0.2595   0.9927   1
1272.440   1.0699   0.2591   0.9927   1
1272.500   1.0124   0.2571   0.9927   1
1272.559   1.3151   0.2751   0.9928   1
1272.619   0.7682   0.2406   0.9928   1
1272.679   0.7947   0.2430   0.9928   1
1272.739   0.9391   0.2530   0.9928   1
1272.799   0.7841   0.2406   0.9928   1
1272.859   0.7689   0.2385   0.9928   1
1272.918   0.9562   0.2476   0.9929   1
1272.978   0.7005   0.2307   0.9929   1
1273.038   0.7653   0.2365   0.9929   1
1273.098   0.7868   0.2378   0.9929   1
1273.158   0.9154   0.2471   0.9929   1
1273.217   1.2153   0.2665   0.9929   1
1273.277   0.9579   0.2493   0.9929   1
1273.337   0.8703   0.2438   0.9930   1
1273.397   1.3419   0.2736   0.9930   1
1273.457   0.9576   0.2499   0.9930   1
1273.516   0.8080   0.2397   0.9930   1
1273.576   0.9792   0.2511   0.9930   1
1273.636   0.7875   0.2376   0.9930   1
1273.696   0.9573   0.2490   0.9930   1
1273.756   0.9571   0.2487   0.9931   1
1273.816   1.0749   0.2671   0.9931   1
1273.875   0.9028   0.3038   0.9931   1
1273.935   0.9687   0.3156   0.9931   1
1273.995   0.9197   0.3177   0.9931   1
1274.055   0.8705   0.3197   0.9931   1
1274.115   1.0620   0.3362   0.9931   1
1274.175   0.7049   0.2973   0.9932   1
1274.234   0.6799   0.2900   0.9932   1
1274.294   0.5691   0.2742   0.9932   1
1274.354   0.7883   0.2914   0.9932   1
1274.414   0.8880   0.3015   0.9932   1
1274.474   0.9738   0.3100   0.9932   1
1274.533   0.6970   0.2883   0.9932   1
1274.593   1.0827   0.3277   0.9933   1
1274.653   0.8000   0.3014   0.9933   1
1274.713   1.0752   0.3261   0.9933   1
1274.773   0.8564   0.3038   0.9933   1
1274.833   0.9039   0.3074   0.9933   1
1274.892   0.8938   0.3059   0.9933   1
1274.952   1.0014   0.3160   0.9933   1
1275.012   1.2613   0.3372   0.9934   1
1275.072   0.9620   0.3165   0.9934   1
1275.132   1.0162   0.3184   0.9934   1
1275.192   0.8172   0.2995   0.9934   1
1275.251   0.9603   0.3074   0.9934   1
1275.311   0.7651   0.2885   0.9934   1
1275.371   0.8957   0.3019   0.9934   1
1275.431   0.7627   0.2894   0.9934   1
1275.491   0.5693   0.2707   0.9935   1
1275.550   0.9249   0.3045   0.9935   1
1275.610   0.8929   0.3007   0.9935   1
1275.670   0.7643   0.2890   0.9935   1
1275.730   0.8613   0.2989   0.9935   1
1275.790   0.8603   0.2981   0.9935   1
1275.849   1.0193   0.3111   0.9935   1
1275.909   0.7307   0.2861   0.9936   1
1275.969   0.9226   0.3019   0.9936   1
1276.029   0.9870   0.3100   0.9936   1
1276.089   0.9870   0.3079   0.9936   1
1276.149   1.0193   0.3102   0.9936   1
1276.208   0.7973   0.3945   0.9936   1
1276.268   1.0208   0.4423   0.9936   1
1276.328   0.8920   0.4263   0.9936   1
1276.388   1.0200   0.4369   0.9937   1
1276.448   1.1484   0.4554   0.9937   1
1276.508   1.2131   0.4638   0.9937   1
1276.567   0.6995   0.4008   0.9937   1
1276.627   1.0228   0.4416   0.9937   1
1276.687   0.6374   0.3965   0.9937   1
1276.747   1.2243   0.4721   0.9937   1
1276.807   0.8279   0.4356   0.9937   1
1276.866   0.6113   0.4204   0.9938   1
1276.926   0.4049   0.3930   0.9938   1
1276.986   0.5150   0.4171   0.9938   1
1277.046   0.7586   0.4525   0.9938   1
1277.106   0.5842   0.4084   0.9938   1
1277.166   0.4454   0.3776   0.9938   1
1277.225   1.5236   0.5056   0.9938   1
1277.285   0.4663   0.3752   0.9938   1
1277.345   0.9292   0.4373   0.9939   1
1277.405   1.1206   0.4580   0.9939   1
1277.465   0.7081   0.4040   0.9939   1
1277.525   0.4468   0.3669   0.9939   1
1277.584   1.2217   0.4639   0.9939   1
1277.644   0.6409   0.3982   0.9939   1
1277.704   1.1166   0.4598   0.9939   1
1277.764   1.0732   0.4642   0.9939   1
1277.824   0.9524   0.4511   0.9939   1
1277.883   1.0168   0.4630   0.9940   1
1277.943   0.9426   0.4594   0.9940   1
1278.003   0.3990   0.3770   0.9940   1
1278.063   0.6235   0.4058   0.9940   1
1278.123   0.7084   0.3684   0.9940   1
1278.182   0.4831   0.2182   0.9940   1
1278.242   0.7094   0.2435   0.9940   1
1278.302   0.4185   0.2112   0.9940   1
1278.362   0.5800   0.2292   0.9941   1
1278.422   0.3213   0.1974   0.9941   1
1278.482   0.7091   0.2430   0.9941   1
1278.541   0.4194   0.2095   0.9941   1
1278.601   0.4195   0.2116   0.9941   1
1278.661   0.4517   0.2153   0.9941   1
1278.721   0.3231   0.1989   0.9941   1
1278.781   0.4518   0.2158   0.9941   1
1278.841   0.1931   0.1811   0.9941   1
1278.900   0.3220   0.2006   0.9942   1
1278.960   0.4846   0.2202   0.9942   1
1279.020   0.2580   0.1919   0.9942   1
1279.080   0.7108   0.2332   0.9942   1
1279.140   0.0000   0.0000   0.9942   1
1279.199   0.0000   0.0000   0.9942   1
1279.259   0.0000   0.0000   0.9942   1
1279.319   0.0000   0.0000   0.9942   1
1279.379   0.0000   0.0000   0.9942   1
1279.439   0.0000   0.0000   0.9943   1
1279.499   0.0000   0.0000   0.9943   1
1279.558   0.0000   0.0000   0.9943   1
1279.618   0.0000   0.0000   0.9943   1
1279.678   0.0000   0.0000   0.9943   1
1279.738   0.0000   0.0000   0.9943   1
1279.798   0.0000   0.0000   0.9943   1
1279.857   0.0000   0.0000   0.9943   1
1279.917   0.0000   0.0000   0.9943   1
1279.977   0.0000   0.0000   0.9944   1
1280.037   0.0000   0.0000   0.9944   1
1280.097   0.0000   0.0000   0.9944   1
1280.157   0.0000   0.0000   0.9944   1
1280.216   0.0000   0.0000   0.9944   1
1280.276   0.0000   0.0000   0.9944   1
1280.336   0.0000   0.0000   0.9944   1
1280.396   0.0000   0.0000   0.9944   1
1280.456   0.0000   0.0000   0.9944   1
1280.516   0.0000   0.0000   0.9944   1
1280.575   0.0000   0.0000   0.9945   1
1280.635   0.0000   0.0000   0.9945   1
1280.695   0.0000   0.0000   0.9945   1
1280.755   0.0000   0.0000   0.9945   1
1280.815   0.0000   0.0000   0.9945   1
1280.874   0.0000   0.0000   0.9945   1
1280.934   0.0000   0.0000   0.9945   1
1280.994   0.0000   0.0000   0.9945   1
1281.054   0.0000   0.0000   0.9945   1
1281.114   0.0000   0.0000   0.9945   1
1281.173   0.0000   0.0000   0.9946   1
1281.233   0.0000   0.0000   0.9946   1
1281.293   0.0000   0.0000   0.9946   1
1281.353   0.0000   0.0000   0.9946   1
1281.413   0.0000   0.0000   0.9946   1
1281.473   0.0000   0.0000   0.9946   1
1281.532   0.0000   0.0000   0.9946   1
1281.592   0.0000   0.0000   0.9946   1
1281.652   0.0000   0.0000   0.9946   1
1281.712   0.0000   0.0000   0.9946   1
1281.772   0.0000   0.0000   0.9947   1
1281.832   0.0000   0.0000   0.9947   1
1281.891   0.0000   0.0000   0.9947   1
1281.951   0.0000   0.0000   0.9947   1
1282.011   0.0000   0.0000   0.9947   1
1282.071   0.0000   0.0000   0.9947   1
1282.131   0.0000   0.0000   0.9947   1
1282.190   0.0000   0.0000   0.9947   1
1282.250   0.0000   0.0000   0.9947   1
1282.310   0.0000   0.0000   0.9947   1
1282.370   0.0000   0.0000   0.9948   1
1282.430   0.0000   0.0000   0.9948   1
1282.490   0.0000   0.0000   0.9948   1
1282.549   0.0000   0.0000   0.9948   1
1282.609   0.0000   0.0000   0.9948   1
1282.669   0.0000   0.0000   0.9948   1
1282.729   0.0000   0.0000   0.9948   1
1282.789   0.0000   0.0000   0.9948   1
1282.849   0.0000   0.0000   0.9948   1
1282.908   0.0000   0.0000   0.9948   1
1282.968   0.0000   0.0000   0.9948   1
1283.028   0.0000   0.0000   0.9949   1
1283.088   0.0000   0.0000   0.9949   1
1283.148   0.0000   0.0000   0.9949   1
1283.207   0.0000   0.0000   0.9949   1
1283.267   0.0000   0.0000   0.9949   1
1283.327   0.0000   0.0000   0.9949   1
1283.387   0.0000   0.0000   0.9949   1
1283.447   0.0000   0.0000   0.9949   1
1283.506   0.0000   0.0000   0.9949   1
1283.566   0.0000   0.0000   0.9949   1
1283.626   0.0000   0.0000   0.9949   1
1283.686   0.0000   0.0000   0.9950   1
1283.746   0.0000   0.0000   0.9950   1
1283.806   0.0000   0.0000   0.9950   1
1283.865   0.0000   0.0000   0.9950   1
1283.925   0.0000   0.0000   0.9950   1
1283.985   0.0000   0.0000   0.9950   1
1284.045   0.0000   0.0000   0.9950   1
1284.105   0.0000   0.0000   0.9950   1
1284.165   0.0000   0.0000   0.9950   1
1284.224   0.0000   0.0000   0.9950   1
1284.284   0.0000   0.0000   0.9950   1
1284.344   0.0000   0.0000   0.9951   1
1284.404   0.0000   0.0000   0.9951   1
1284.464   0.0000   0.0000   0.9951   1
1284.523   0.0000   0.0000   0.9951   1
1284.583   0.0000   0.0000   0.9951   1
1284.643   0.0000   0.0000   0.9951   1
1284.703   0.0000   0.0000   0.9951   1
1284.763   0.0000   0.0000   0.9951   1
1284.823   0.0000   0.0000   0.9951   1
1284.882   0.0000   0.0000   0.9951   1
1284.942   0.0000   0.0000   0.9951   1
1285.002   0.0000   0.0000   0.9951   1
1285.062   0.0000   0.0000   0.9952   1
1285.122   0.0000   0.0000   0.9952   1
1285.181   0.0000   0.0000   0.9952   1
1285.241   0.0000   0.0000   0.9952   1
1285.301   0.0000   0.0000   0.9952   1
1285.361   0.0000   0.0000   0.9952   1
1285.421   0.0000   0.0000   0.9952   1
1285.481   0.0000   0.0000   0.9952   1
1285.540   0.0000   0.0000   0.9952   1
1285.600   0.0000   0.0000   0.9952   1
1285.660   0.0000   0.0000   0.9952   1
1285.720   0.0000   0.0000   0.9952   1
1285.780   0.0000   0.0000   0.9953   1
1285.839   0.0000   0.0000   0.9953   1
1285.899   0.0000   0.0000   0.9953   1
1285.959   0.0000   0.0000   0.9953   1
1286.019   0.0000   0.0000   0.9953   1
1286.079   0.0000   0.0000   0.9953   1
1286.139   0.0000   0.0000   0.9953   1
1286.198   0.0000   0.0000   0.9953   1
1286.258   0.0000   0.0000   0.9953   1
1286.318   0.0000   0.0000   0.9953   1
1286.378   0.0000   0.0000   0.9953   1
1286.438   0.0000   0.0000   0.9953   1
1286.497   0.0000   0.0000   0.9954   1
1286.557   0.0000   0.0000   0.9954   1
1286.617   0.0000   0.0000   0.9954   1
1286.677   0.0000   0.0000   0.9954   1
1286.737   0.0000   0.0000   0.9954   1
1286.797   0.0000   0.0000   0.9954   1
1286.856   0.0000   0.0000   0.9954   1
1286.916   0.0000   0.0000   0.9954   1
1286.976   0.0000   0.0000   0.9954   1
1287.036   0.0000   0.0000   0.9954   1
1287.096   0.0000   0.0000   0.9954   1
1287.156   0.0000   0.0000   0.9954   1
1287.215   0.0000   0.0000   0.9954   1
1287.275   0.0000   0.0000   0.9955   1
1287.335   0.0000   0.0000   0.9955   1
1287.395   0.0000   0.0000   0.9955   1
1287.455   0.0000   0.0000   0.9955   1
1287.514   0.0000   0.0000   0.9955   1
1287.574   0.0000   0.0000   0.9955   1
1287.634   0.0000   0.0000   0.9955   1
1287.694   0.0000   0.0000   0.9955   1
1287.754   0.0000   0.0000   0.9955   1
1287.813   0.1611   0.1768   0.9955   1
1287.873   0.3631   0.2345   0.9955   1
1287.933   0.3226   0.2287   0.9955   1
1287.993   0.2018   0.2092   0.9955   1
1288.053   0.4445   0.2463   0.9956   1
1288.113   0.3236   0.2290   0.9956   1
1288.172   0.4858   0.2519   0.9956   1
1288.232   0.4036   0.4178   0.9956   1
1288.292   1.2977   0.5429   0.9956   1
1288.352   0.8933   0.4954   0.9956   1
1288.412   0.8956   0.4899   0.9956   1
1288.472   0.8136   0.4796   0.9956   1
1288.531   1.3030   0.5409   0.9956   1
1288.591   0.9761   0.4976   0.9956   1
1288.651   0.6514   0.4584   0.9956   1
1288.711   0.7314   0.4704   0.9956   1
1288.771   0.7311   0.4712   0.9956   1
1288.830   1.3823   0.5459   0.9956   1
1288.890   1.1346   0.5197   0.9957   1
1288.950   0.7269   0.4711   0.9957   1
1289.010   0.6456   0.4573   0.9957   1
1289.070   0.4815   0.4350   0.9957   1
1289.130   0.4817   0.4337   0.9957   1
1289.189   0.3185   0.4047   0.9957   1
1289.249   1.4640   0.5611   0.9957   1
1289.309   0.5654   0.4481   0.9957   1
1289.369   0.5638   0.4478   0.9957   1
1289.429   0.8091   0.4795   0.9957   1
1289.489   1.1417   0.5264   0.9957   1
1289.548   0.9785   0.5073   0.9957   1
1289.608   1.0614   0.5162   0.9957   1
1289.668   0.6497   0.4603   0.9957   1
1289.728   0.4844   0.4326   0.9958   1
1289.788   0.9804   0.5079   0.9958   1
1289.847   1.1488   0.5268   0.9958   1
1289.907   1.1512   0.5299   0.9958   1
1289.967   0.4910   0.4382   0.9958   1
1290.027   0.6558   0.4620   0.9958   1
1290.087   0.5739   0.4483   0.9958   1
1290.146   0.6561   0.4605   0.9958   1
1290.206   1.3170   0.5464   0.9958   1
1290.266   1.2340   0.5399   0.9958   1
1290.326   0.7384   0.4716   0.9958   1
1290.386   0.8229   0.4853   0.9958   1
1290.446   0.9900   0.5061   0.9958   1
1290.505   0.3293   0.3291   0.9958   1
1290.565   0.3239   0.3246   0.9958   1
1290.625   1.0947   0.5017   0.9959   1
1290.685   1.3471   0.3872   0.9959   1
1290.745   0.8575   0.3454   0.9959   1
1290.805   0.8574   0.3466   0.9959   1
1290.864   0.8981   0.3485   0.9959   1
1290.924   1.1858   0.3753   0.9959   1
1290.984   0.7748   0.3390   0.9959   1
1291.044   1.2276   0.3778   0.9959   1
1291.104   1.1463   0.3732   0.9959   1
1291.163   1.0249   0.3609   0.9959   1
1291.223   0.9840   0.3595   0.9959   1
1291.283   0.7782   0.3373   0.9959   1
1291.343   1.3141   0.3813   0.9959   1
1291.403   1.0684   0.3661   0.9959   1
1291.463   0.9859   0.3560   0.9959   1
1291.522   0.9442   0.3521   0.9960   1
1291.582   1.3558   0.3902   0.9960   1
1291.642   0.7786   0.3368   0.9960   1
1291.702   0.7813   0.3392   0.9960   1
1291.762   0.8225   0.3418   0.9960   1
1291.821   0.5745   0.3141   0.9960   1
1291.881   0.6972   0.3311   0.9960   1
1291.941   1.1096   0.3676   0.9960   1
1292.001   0.4897   0.3084   0.9960   1
1292.061   1.1078   0.3697   0.9960   1
1292.121   0.9018   0.3498   0.9960   1
1292.180   0.9020   0.3508   0.9960   1
1292.240   0.8602   0.3443   0.9960   1
1292.300   0.8176   0.3425   0.9960   1
1292.360   0.9411   0.3505   0.9960   1
1292.420   0.7335   0.3344   0.9960   1
1292.479   0.9817   0.3580   0.9961   1
1292.539   0.7741   0.3371   0.9961   1
1292.599   0.8970   0.3473   0.9961   1
1292.659   1.1018   0.3652   0.9961   1
1292.719   0.8938   0.3488   0.9961   1
1292.779   0.7297   0.3323   0.9961   1
1292.838   0.6890   0.3286   0.9961   1
1292.898   0.5662   0.2979   0.9961   1
1292.958   1.0320   0.2937   0.9961   1
1293.018   1.0878   0.2980   0.9961   1
1293.078   1.0873   0.2983   0.9961   1
1293.137   0.8130   0.2772   0.9961   1
1293.197   1.0312   0.2935   0.9961   1
1293.257   0.6748   0.2970   0.9961   1
1293.317   0.8939   0.3468   0.9961   1
1293.377   0.8511   0.3420   0.9961   1
1293.437   1.1112   0.2990   0.9962   1
1293.496   0.8383   0.2791   0.9962   1
1293.556   1.1415   0.3014   0.9962   1
1293.616   0.8680   0.2808   0.9962   1
1293.676   0.6771   0.2646   0.9962   1
1293.736   1.0333   0.2934   0.9962   1
1293.796   1.0332   0.2944   0.9962   1
1293.855   0.9508   0.2882   0.9962   1
1293.915   0.7593   0.2725   0.9962   1
1293.975   1.1149   0.2989   0.9962   1
1294.035   1.1155   0.2980   0.9962   1
1294.095   1.2513   0.3087   0.9962   1
1294.154   1.2240   0.3066   0.9962   1
1294.214   0.9248   0.2844   0.9962   1
1294.274   1.0064   0.2914   0.9962   1
1294.334   1.1995   0.3053   0.9962   1
1294.394   1.1455   0.3001   0.9962   1
1294.453   0.9548   0.2878   0.9963   1
1294.513   0.8995   0.2832   0.9963   1
1294.573   1.0094   0.2927   0.9963   1
1294.633   0.7065   0.2685   0.9963   1
1294.693   0.7896   0.2751   0.9963   1
1294.753   0.7343   0.2700   0.9963   1
1294.812   1.0355   0.2945   0.9963   1
1294.872   0.6793   0.2652   0.9963   1
1294.932   0.8174   0.2790   0.9963   1
1294.992   1.0929   0.2993   0.9963   1
1295.052   0.8734   0.2838   0.9963   1
1295.112   1.2039   0.3062   0.9963   1
1295.171   0.7913   0.2756   0.9963   1
1295.231   0.6831   0.2689   0.9963   1
1295.291   1.1530   0.3042   0.9963   1
1295.351   0.9611   0.2890   0.9963   1
1295.411   1.2660   0.3120   0.9963   1
1295.470   0.7967   0.2770   0.9963   1
1295.530   0.9369   0.2881   0.9964   1
1295.590   1.1509   0.3461   0.9964   1
1295.650   0.7997   0.3465   0.9964   1
1295.710   0.9832   0.3698   0.9964   1
1295.770   0.9805   0.3128   0.9964   1
1295.829   0.6113   0.2389   0.9964   1
1295.889   0.6147   0.2314   0.9964   1
1295.949   0.6901   0.2389   0.9964   1
1296.009   0.9283   0.2546   0.9964   1
1296.069   0.8624   0.2482   0.9964   1
1296.129   0.7702   0.2399   0.9964   1
1296.188   0.7923   0.2413   0.9964   1
1296.248   0.5845   0.2274   0.9964   1
1296.308   0.6908   0.2349   0.9964   1
1296.368   0.7338   0.2389   0.9964   1
1296.428   0.5867   0.2286   0.9964   1
1296.487   0.6713   0.2349   0.9964   1
1296.547   0.8204   0.2463   0.9964   1
1296.607   0.9069   0.2519   0.9965   1
1296.667   0.8451   0.2489   0.9965   1
1296.727   0.9318   0.2541   0.9965   1
