# Best-fit normalized data and profile from VoigtFit
# column 1 : Wavelength
# column 2 : Normalized flux
# column 3 : Normalized error
# column 4 : Best-fit profile
# column 5 : Pixel mask, 1=included, 0=excluded
1134.584   0.2090   0.9539   0.9976   1
1134.644   0.8339   1.0695   0.9976   1
1134.704   0.4167   0.9934   0.9976   1
1134.764   0.2079   0.9496   0.9976   1
1134.823   0.2074   0.9481   0.9976   1
1134.883   0.0000   0.9027   0.9976   1
1134.943   0.4124   0.9869   0.9976   1
1135.003   1.0295   1.0965   0.9976   1
1135.063   1.0387   0.9399   0.9976   1
1135.123   0.7268   0.7329   0.9976   1
1135.182   0.5633   0.7231   0.9976   1
1135.242   0.5939   0.7331   0.9976   1
1135.302   0.7309   0.7558   0.9975   1
1135.362   0.7252   0.7535   0.9975   1
1135.422   1.1600   0.7983   0.9975   1
1135.481   0.4636   0.7086   0.9975   1
1135.541   0.9348   0.7718   0.9975   1
1135.601   0.6771   0.7299   0.9975   1
1135.661   0.7162   0.7261   0.9975   1
1135.721   0.6116   0.7100   0.9975   1
1135.781   0.3016   0.6703   0.9975   1
1135.840   0.1984   0.6552   0.9975   1
1135.900   0.7027   0.7233   0.9975   1
1135.960   0.2948   0.6670   0.9975   1
1136.020   0.0918   0.6366   0.9975   1
1136.080   0.1921   0.6493   0.9975   1
1136.140   0.0914   0.6350   0.9975   1
1136.199   0.0912   0.6341   0.9975   1
1136.259   0.1915   0.6484   0.9975   1
1136.319   0.1905   0.6474   0.9975   1
1136.379   0.3860   0.6741   0.9975   1
1136.439   0.4851   0.6856   0.9975   1
1136.498   0.8805   0.7327   0.9975   1
1136.558   0.0852   0.6290   0.9975   1
1136.618   -0.0141   0.6134   0.9975   1
1136.678   0.0868   0.6279   0.9975   1
1136.738   0.1995   0.6452   0.9975   1
1136.797   0.0955   0.6285   0.9975   1
1136.857   0.5034   0.6824   0.9975   1
1136.917   0.3972   0.6692   0.9974   1
1136.977   0.5844   0.6932   0.9974   1
1137.037   0.5785   0.6877   0.9974   1
1137.097   0.2874   0.6499   0.9974   1
1137.156   0.5785   0.6858   0.9974   1
1137.216   0.6772   0.6976   0.9974   1
1137.276   0.9453   0.6477   0.9974   1
1137.336   1.1157   0.6120   0.9974   1
1137.396   0.8513   0.5868   0.9974   1
1137.456   0.9795   0.5955   0.9974   1
1137.515   0.7215   0.5714   0.9974   1
1137.575   0.5287   0.5534   0.9974   1
1137.635   1.0028   0.6023   0.9974   1
1137.695   0.9979   0.6004   0.9974   1
1137.755   0.3940   0.5373   0.9974   1
1137.814   0.8441   0.5838   0.9974   1
1137.874   0.9097   0.5894   0.9974   1
1137.934   0.5355   0.5523   0.9974   1
1137.994   0.9595   0.5964   0.9974   1
1138.054   1.2032   0.6276   0.9974   1
1138.114   0.9937   0.6068   0.9974   1
1138.173   1.1718   0.6189   0.9974   1
1138.233   0.6099   0.5595   0.9974   1
1138.293   1.3098   0.6296   0.9974   1
1138.353   0.8864   0.5876   0.9974   1
1138.413   0.9922   0.5928   0.9973   1
1138.472   0.5394   0.5497   0.9973   1
1138.532   0.4624   0.5391   0.9973   1
1138.592   0.8393   0.5755   0.9973   1
1138.652   0.5636   0.5448   0.9973   1
1138.712   0.4969   0.5370   0.9973   1
1138.772   0.8098   0.5699   0.9973   1
1138.831   0.4953   0.5367   0.9973   1
1138.891   0.5571   0.5424   0.9973   1
1138.951   0.8665   0.5738   0.9973   1
1139.011   0.8669   0.5735   0.9973   1
1139.071   0.6800   0.5521   0.9973   1
1139.130   0.5571   0.5413   0.9973   1
1139.190   1.0097   0.5852   0.9973   1
1139.250   0.4543   0.5287   0.9973   1
1139.310   0.3942   0.5236   0.9973   1
1139.370   0.5754   0.5405   0.9973   1
1139.430   0.5777   0.5424   0.9973   1
1139.489   0.5759   0.5418   0.9973   1
1139.549   1.0980   0.5918   0.9973   1
1139.609   1.0803   0.5915   0.9973   1
1139.669   1.0003   0.5824   0.9973   1
1139.729   0.6115   0.5400   0.9973   1
1139.788   0.9114   0.5689   0.9973   1
1139.848   0.9071   0.5660   0.9972   1
1139.908   0.9657   0.5711   0.9972   1
1139.968   1.2677   0.5981   0.9972   1
1140.028   0.4820   0.5238   0.9972   1
1140.088   0.7856   0.5546   0.9972   1
1140.147   0.8163   0.5620   0.9972   1
1140.207   0.7745   0.5605   0.9972   1
1140.267   0.6433   0.4849   0.9972   1
1140.327   0.8958   0.4977   0.9972   1
1140.387   0.8426   0.4881   0.9972   1
1140.447   0.8379   0.4885   0.9972   1
1140.506   0.5933   0.4652   0.9972   1
1140.566   0.6725   0.4731   0.9972   1
1140.626   0.6032   0.4631   0.9972   1
1140.686   0.8584   0.4794   0.9972   0
1140.746   0.6765   0.4654   0.9972   0
1140.805   0.7208   0.4689   0.9972   0
1140.865   0.6755   0.4671   0.9972   0
1140.925   0.4939   0.4485   0.9972   0
1140.985   0.7637   0.4709   0.9972   0
1141.045   0.5379   0.4517   0.9972   0
1141.104   0.8068   0.4738   0.9972   0
1141.164   0.8221   0.4760   0.9971   0
1141.224   0.5550   0.4533   0.9971   0
1141.284   0.9864   0.4925   0.9971   0
1141.344   0.8805   0.4831   0.9971   0
1141.404   0.8570   0.4784   0.9971   0
1141.464   0.7538   0.4679   0.9971   0
1141.523   1.0644   0.4932   0.9971   0
1141.583   0.5761   0.4503   0.9971   0
1141.643   0.8042   0.4722   0.9971   0
1141.703   0.5896   0.4539   0.9971   0
1141.763   0.4542   0.4406   0.9971   0
1141.822   0.8660   0.4782   0.9971   0
1141.882   0.4519   0.4402   0.9971   0
1141.942   0.5373   0.4480   0.9971   0
1142.002   0.4531   0.4388   0.9971   0
1142.062   0.4088   0.4339   0.9971   0
1142.121   0.5886   0.4518   0.9971   0
1142.181   0.5390   0.4463   0.9971   0
1142.241   0.4896   0.4401   0.9971   0
1142.301   0.7871   0.4669   0.9971   0
1142.361   0.6533   0.4534   0.9971   0
1142.421   0.9593   0.4794   0.9971   0
1142.480   0.6098   0.4480   0.9970   0
1142.540   0.7032   0.4579   0.9970   0
1142.600   0.7990   0.4652   0.9970   0
1142.660   0.7971   0.4656   0.9970   0
1142.720   0.9693   0.4772   0.9970   0
1142.780   1.0067   0.4812   0.9970   0
1142.839   0.8667   0.4688   0.9970   0
1142.899   0.6486   0.4495   0.9970   0
1142.959   0.6482   0.4495   0.9970   0
1143.019   0.2999   0.4181   0.9970   0
1143.079   0.5642   0.4427   0.9970   0
1143.138   0.2222   0.4118   0.9970   0
1143.198   0.3637   0.4279   0.9970   0
1143.258   0.5080   0.4422   0.9970   0
1143.318   0.7340   0.4615   0.9970   0
1143.378   0.6878   0.4565   0.9970   0
1143.438   0.9463   0.4785   0.9970   0
1143.497   0.7303   0.4269   0.9970   0
1143.557   0.5605   0.4442   0.9970   0
1143.617   0.7218   0.4571   0.9970   0
1143.677   0.5389   0.4403   0.9969   0
1143.737   0.7659   0.4605   0.9969   0
1143.797   0.7645   0.4585   0.9969   0
1143.856   0.4016   0.4247   0.9969   0
1143.916   0.5335   0.4358   0.9969   0
1143.976   0.6667   0.4488   0.9969   0
1144.036   0.2531   0.4085   0.9969   0
1144.096   0.7174   0.4466   0.9969   0
1144.155   0.5975   0.4402   0.9969   0
1144.215   0.5207   0.4338   0.9969   0
1144.275   0.9210   0.4672   0.9969   0
1144.335   0.4345   0.4247   0.9969   0
1144.395   0.8623   0.4617   0.9969   0
1144.454   0.7201   0.4477   0.9969   0
1144.514   0.8378   0.4564   0.9969   0
1144.574   0.2893   0.4090   0.9969   0
1144.634   0.5505   0.4327   0.9969   0
1144.694   0.5147   0.4313   0.9969   0
1144.754   0.4705   0.4257   0.9969   0
1144.813   0.1683   0.3965   0.9969   0
1144.873   0.1653   0.3954   0.9968   0
1144.933   0.2905   0.4066   0.9968   0
1144.993   0.1209   0.3894   0.9968   0
1145.053   0.3718   0.4140   0.9968   0
1145.113   0.4144   0.4160   0.9968   0
1145.172   0.3733   0.4134   0.9968   0
1145.232   0.6655   0.4384   0.9968   0
1145.292   0.4134   0.4155   0.9968   0
1145.352   0.3723   0.4120   0.9968   0
1145.412   0.4146   0.4162   0.9968   0
1145.471   0.5886   0.4316   0.9968   0
1145.531   0.5047   0.4248   0.9968   0
1145.591   0.4220   0.4171   0.9968   0
1145.651   0.7609   0.4457   0.9968   0
1145.711   0.5030   0.4229   0.9968   0
1145.771   0.7474   0.4424   0.9968   0
1145.830   0.3280   0.4054   0.9968   0
1145.890   0.7846   0.4464   0.9968   0
1145.950   0.8671   0.4517   0.9967   0
1146.010   0.5759   0.4280   0.9967   0
1146.070   0.7393   0.4403   0.9967   0
1146.129   0.6146   0.4301   0.9967   0
1146.189   0.6960   0.4365   0.9967   0
1146.249   0.9828   0.4579   0.9967   0
1146.309   0.6596   0.4346   0.9967   0
1146.369   0.8263   0.4503   0.9967   0
1146.429   0.4012   0.4143   0.9967   0
1146.488   0.5868   0.4320   0.9967   0
1146.548   0.4854   0.4226   0.9967   0
1146.608   0.3029   0.4030   0.9967   0
1146.668   0.2143   0.3940   0.9967   0
1146.728   0.1278   0.3849   0.9967   0
1146.787   0.1278   0.3837   0.9967   0
1146.847   0.2030   0.3893   0.9967   0
1146.907   0.1615   0.3853   0.9967   0
1146.967   0.2442   0.3933   0.9967   0
1147.027   0.2028   0.3884   0.9966   0
1147.087   0.1632   0.3847   0.9966   0
1147.146   0.2910   0.3970   0.9966   0
1147.206   0.3385   0.4023   0.9966   0
1147.266   0.2541   0.3946   0.9966   0
1147.326   0.2101   0.3893   0.9966   0
1147.386   0.4579   0.4121   0.9966   0
1147.445   0.4951   0.4145   0.9966   0
1147.505   0.4893   0.4130   0.9966   0
1147.565   0.5295   0.4165   0.9966   0
1147.625   0.6916   0.4314   0.9966   0
1147.685   0.6907   0.4294   0.9966   0
1147.745   0.7313   0.4348   0.9966   0
1147.804   0.8936   0.4467   0.9966   0
1147.864   0.7311   0.4336   0.9966   0
1147.924   0.7311   0.4326   0.9966   0
1147.984   0.8108   0.4389   0.9966   0
1148.044   1.1361   0.4627   0.9965   0
1148.104   0.8108   0.4388   0.9965   1
1148.163   1.0542   0.4581   0.9965   1
1148.223   0.6486   0.4248   0.9965   1
1148.283   0.8493   0.4403   0.9965   1
1148.343   0.7698   0.4345   0.9965   1
1148.403   0.6868   0.4266   0.9965   1
1148.462   0.6057   0.4199   0.9965   1
1148.522   0.9279   0.4444   0.9965   1
1148.582   0.5449   0.4167   0.9965   1
1148.642   0.8463   0.4416   0.9965   1
1148.702   0.8087   0.4415   0.9965   1
1148.761   0.6356   0.4232   0.9965   1
1148.821   1.1030   0.4624   0.9965   1
1148.881   0.7150   0.4321   0.9965   1
1148.941   0.8837   0.4454   0.9965   1
1149.001   1.1162   0.4596   0.9964   1
1149.061   0.8389   0.4345   0.9964   1
1149.120   0.7556   0.4296   0.9964   1
1149.180   0.6336   0.4183   0.9964   1
1149.240   1.0348   0.4506   0.9964   1
1149.300   0.5929   0.4145   0.9964   1
1149.360   0.9930   0.4458   0.9964   1
1149.420   0.6721   0.4202   0.9964   1
1149.479   0.7133   0.4224   0.9964   1
1149.539   0.9923   0.4433   0.9964   1
1149.599   0.7927   0.4294   0.9964   1
1149.659   0.7536   0.4258   0.9964   1
1149.719   0.8706   0.4346   0.9964   1
1149.778   0.7923   0.4286   0.9964   1
1149.838   0.8716   0.4333   0.9964   1
1149.898   0.6729   0.4192   0.9964   1
1149.958   0.9893   0.4430   0.9963   1
1150.018   0.8311   0.4314   0.9963   1
1150.078   0.9097   0.4358   0.9963   1
1150.137   1.0284   0.4470   0.9963   1
1150.197   0.9498   0.4380   0.9963   1
1150.257   0.9454   0.4374   0.9963   1
1150.317   0.8302   0.4287   0.9963   1
1150.377   0.7889   0.4259   0.9963   1
1150.437   0.7076   0.4184   0.9963   1
1150.496   0.8247   0.4269   0.9963   1
1150.556   0.6269   0.4113   0.9963   1
1150.616   0.5862   0.4069   0.9963   1
1150.676   0.9021   0.4338   0.9963   1
1150.736   0.8611   0.4277   0.9963   1
1150.795   0.9397   0.4342   0.9962   1
1150.855   0.8984   0.4310   0.9962   1
1150.915   0.7031   0.4145   0.9962   1
1150.975   1.0538   0.4431   0.9962   1
1151.035   0.8191   0.4244   0.9962   1
1151.094   0.6211   0.4071   0.9962   1
1151.154   1.1300   0.4467   0.9962   1
1151.214   0.9745   0.4363   0.9962   1
1151.274   1.0129   0.4370   0.9962   1
1151.334   1.1303   0.4470   0.9962   1
1151.394   0.7400   0.4152   0.9962   1
1151.453   1.0512   0.4393   0.9962   1
1151.513   0.7895   0.4218   0.9962   1
1151.573   0.6492   0.4098   0.9962   1
1151.633   1.1061   0.4502   0.9962   1
1151.693   0.7406   0.4189   0.9961   1
1151.753   1.0253   0.4419   0.9961   1
1151.812   0.9032   0.4323   0.9961   1
1151.872   0.5721   0.4029   0.9961   1
1151.932   0.5729   0.4031   0.9961   1
1151.992   0.8608   0.4264   0.9961   1
1152.052   1.0223   0.4410   0.9961   1
1152.111   0.6999   0.4135   0.9961   1
1152.171   1.1373   0.4475   0.9961   1
1152.231   0.5640   0.3991   0.9961   1
1152.291   1.0928   0.4454   0.9961   1
1152.351   0.5650   0.4004   0.9961   1
1152.411   1.1851   0.4467   0.9961   1
1152.470   0.6146   0.4009   0.9961   1
1152.530   0.6494   0.4028   0.9960   1
1152.590   0.9157   0.4228   0.9960   1
1152.650   0.6869   0.4036   0.9960   1
1152.710   0.6479   0.4004   0.9960   1
1152.769   0.4933   0.3885   0.9960   1
1152.829   0.6069   0.3983   0.9960   1
1152.889   0.6077   0.3973   0.9960   1
1152.949   0.6447   0.4007   0.9960   1
1153.009   0.6437   0.4013   0.9960   1
1153.069   0.4529   0.3829   0.9960   1
1153.128   0.6049   0.3958   0.9960   1
1153.188   0.4922   0.3867   0.9960   1
1153.248   0.6813   0.4027   0.9960   1
1153.308   0.8725   0.4172   0.9959   1
1153.368   0.8696   0.4164   0.9959   1
1153.427   0.5650   0.3921   0.9959   1
1153.487   0.7550   0.4072   0.9959   1
1153.547   0.8326   0.4141   0.9959   1
1153.607   0.6796   0.3992   0.9959   1
1153.667   0.8306   0.4121   0.9959   1
1153.727   1.1696   0.4384   0.9959   1
1153.786   0.6398   0.3969   0.9959   1
1153.846   1.0901   0.4297   0.9959   1
1153.906   0.7512   0.4042   0.9959   1
1153.966   0.9378   0.4204   0.9959   1
1154.026   1.0880   0.4309   0.9959   1
1154.085   0.7853   0.4057   0.9958   1
1154.145   0.8611   0.4130   0.9958   1
1154.205   0.7842   0.4057   0.9958   1
1154.265   1.1951   0.4372   0.9958   1
1154.325   0.7457   0.4011   0.9958   1
1154.385   0.9684   0.4194   0.9958   1
1154.444   0.6303   0.3915   0.9958   1
1154.504   0.4430   0.3764   0.9958   1
1154.564   0.6285   0.3921   0.9958   1
1154.624   0.4787   0.3771   0.9958   1
1154.684   0.5898   0.3882   0.9958   1
1154.744   0.3736   0.3686   0.9958   1
1154.803   0.8910   0.4155   0.9957   1
1154.863   0.6627   0.3979   0.9957   1
1154.923   0.5411   0.3862   0.9957   1
1154.983   0.6160   0.3911   0.9957   1
1155.043   0.6534   0.3938   0.9957   1
1155.102   0.6953   0.3979   0.9957   1
1155.162   0.5343   0.3828   0.9957   1
1155.222   0.7413   0.3963   0.9957   1
1155.282   0.6951   0.3929   0.9957   1
1155.342   0.8058   0.4017   0.9957   1
1155.401   0.6576   0.3909   0.9957   1
1155.461   0.8418   0.4030   0.9957   1
1155.521   0.6925   0.3933   0.9956   1
1155.581   0.5466   0.3793   0.9956   1
1155.641   0.5468   0.3797   0.9956   1
1155.701   1.0223   0.4171   0.9956   1
1155.760   0.6198   0.3842   0.9956   1
1155.820   0.5834   0.3825   0.9956   1
1155.880   0.6560   0.3878   0.9956   1
1155.940   0.5099   0.3742   0.9956   1
1156.000   0.7640   0.3970   0.9956   1
1156.060   0.5821   0.3808   0.9956   1
1156.119   0.4004   0.3654   0.9956   1
1156.179   0.3999   0.3646   0.9955   1
1156.239   0.3631   0.3609   0.9955   1
1156.299   0.5078   0.3738   0.9955   1
1156.359   0.7976   0.3976   0.9955   1
1156.418   0.8713   0.4035   0.9955   1
1156.478   0.6897   0.3889   0.9955   1
1156.538   0.5073   0.3730   0.9955   1
1156.598   0.6889   0.3883   0.9955   1
1156.658   0.7238   0.3903   0.9955   1
1156.718   0.6153   0.3812   0.9955   1
1156.777   0.7222   0.3904   0.9955   1
1156.837   0.7943   0.3967   0.9954   1
1156.897   0.5776   0.3781   0.9954   1
1156.957   0.5871   0.3783   0.9954   1
1157.017   0.5991   0.3804   0.9954   1
1157.077   0.4947   0.3743   0.9954   1
1157.136   0.7228   0.3928   0.9954   1
1157.196   0.6004   0.3813   0.9954   1
1157.256   0.5629   0.3787   0.9954   1
1157.316   0.7897   0.3967   0.9954   1
1157.376   0.4099   0.3638   0.9954   1
1157.435   0.9027   0.4028   0.9954   1
1157.495   0.9291   0.4035   0.9953   1
1157.555   0.6424   0.3816   0.9953   1
1157.615   0.6066   0.3779   0.9953   1
1157.675   0.7496   0.3891   0.9953   1
1157.734   0.7129   0.3848   0.9953   1
1157.794   0.9989   0.4089   0.9953   1
1157.854   0.5326   0.3717   0.9953   1
1157.914   0.9618   0.4049   0.9953   1
1157.974   0.5711   0.3725   0.9953   1
1158.034   0.6046   0.3774   0.9953   1
1158.093   0.6043   0.3772   0.9953   1
1158.153   0.6037   0.3762   0.9952   1
1158.213   0.6996   0.3940   0.9952   1
1158.273   0.7593   0.4487   0.9952   1
1158.333   0.4719   0.4211   0.9952   1
1158.393   0.9922   0.4691   0.9952   1
1158.452   0.9458   0.4656   0.9952   1
1158.512   0.5641   0.4310   0.9952   1
1158.572   0.9904   0.4688   0.9952   1
1158.632   0.9530   0.4032   0.9952   1
1158.692   0.7046   0.3835   0.9952   1
1158.751   0.8827   0.3961   0.9951   1
1158.811   0.8457   0.3950   0.9951   1
1158.871   0.4907   0.3649   0.9951   1
1158.931   0.8082   0.3902   0.9951   1
1158.991   0.5604   0.3709   0.9951   1
1159.051   0.7007   0.3821   0.9951   1
1159.110   0.5943   0.3728   0.9951   1
1159.170   0.4879   0.3642   0.9951   1
1159.230   0.7345   0.3847   0.9951   1
1159.290   0.5225   0.3659   0.9950   1
1159.350   0.6988   0.3811   0.9950   1
1159.409   0.8050   0.3906   0.9950   1
1159.469   0.7355   0.3839   0.9950   1
1159.529   0.9810   0.4010   0.9950   1
1159.589   0.7696   0.3867   0.9950   1
1159.649   0.5241   0.3645   0.9950   1
1159.709   0.4862   0.3629   0.9950   1
1159.768   0.5553   0.3691   0.9950   1
1159.828   0.5905   0.3706   0.9950   1
1159.888   0.6661   0.3761   0.9949   1
1159.948   0.5712   0.3705   0.9949   1
1160.008   0.4008   0.3560   0.9949   1
1160.068   0.6959   0.3811   0.9949   1
1160.127   0.6944   0.3816   0.9949   1
1160.187   0.6183   0.3754   0.9949   1
1160.247   0.6549   0.3787   0.9949   1
1160.307   0.4352   0.3588   0.9949   1
1160.367   0.4325   0.3584   0.9949   1
1160.426   0.7221   0.3833   0.9948   1
1160.486   0.5472   0.3688   0.9948   1
1160.546   0.8740   0.3954   0.9948   1
1160.606   0.5073   0.3644   0.9948   1
1160.666   0.9112   0.3981   0.9948   1
1160.725   0.6968   0.3800   0.9948   1
1160.785   0.6180   0.3736   0.9948   1
1160.845   0.7191   0.3818   0.9948   1
1160.905   0.5611   0.3673   0.9948   1
1160.965   0.7265   0.3787   0.9947   1
1161.025   0.5438   0.3994   0.9947   1
1161.084   0.6459   0.4288   0.9947   1
1161.144   0.6926   0.4365   0.9947   1
1161.204   1.1094   0.4704   0.9947   1
1161.264   0.6922   0.4361   0.9947   1
1161.324   1.0157   0.4618   0.9947   1
1161.384   0.7828   0.4161   0.9947   1
1161.443   0.6221   0.3707   0.9947   1
1161.503   0.8276   0.3865   0.9946   1
1161.563   0.5848   0.3659   0.9946   1
1161.623   0.7899   0.3831   0.9946   1
1161.683   0.6864   0.3754   0.9946   1
1161.742   0.7217   0.3786   0.9946   1
1161.802   1.0322   0.4016   0.9946   1
1161.862   0.7581   0.3808   0.9946   1
1161.922   0.8612   0.3884   0.9946   1
1161.982   0.9289   0.3928   0.9945   1
1162.042   0.7386   0.3514   0.9945   1
1162.101   0.7919   0.3840   0.9945   1
1162.161   0.7206   0.3765   0.9945   1
1162.221   0.8600   0.3866   0.9945   1
1162.281   0.6524   0.3709   0.9945   1
1162.341   0.7912   0.3813   0.9945   1
1162.401   0.7204   0.3767   0.9945   1
1162.460   0.6525   0.3711   0.9944   1
1162.520   0.7896   0.3817   0.9944   1
1162.580   0.8596   0.3856   0.9944   1
1162.640   0.5500   0.3617   0.9944   1
1162.700   0.7564   0.3789   0.9944   1
1162.759   0.5842   0.3644   0.9944   1
1162.819   0.5150   0.3592   0.9944   1
1162.879   0.6184   0.3668   0.9944   1
1162.939   0.8236   0.3829   0.9943   1
1162.999   0.6860   0.3725   0.9943   1
1163.058   0.8899   0.3880   0.9943   1
1163.118   0.8886   0.3892   0.9943   1
1163.178   1.1252   0.4072   0.9943   1
1163.238   0.8531   0.4417   0.9943   1
1163.298   0.8793   0.4542   0.9943   1
1163.358   0.4329   0.4089   0.9943   1
1163.417   0.8235   0.4475   0.9942   1
1163.477   0.6308   0.4287   0.9942   1
1163.537   0.6271   0.4284   0.9942   1
1163.597   0.6251   0.3786   0.9942   1
1163.657   0.7583   0.3780   0.9942   1
1163.717   0.7105   0.3734   0.9942   1
1163.776   0.4382   0.3505   0.9942   1
1163.836   0.7441   0.3771   0.9942   1
1163.896   0.5735   0.3617   0.9941   1
1163.956   0.6076   0.3645   0.9941   1
1164.016   0.7099   0.3724   0.9941   1
1164.075   0.4024   0.3474   0.9941   1
1164.135   0.7088   0.3719   0.9941   1
1164.195   0.7095   0.3717   0.9941   1
1164.255   0.7779   0.3771   0.9941   1
1164.315   0.6741   0.3674   0.9940   1
1164.375   0.7776   0.3774   0.9940   1
1164.434   0.9810   0.3925   0.9940   1
1164.494   0.9801   0.3930   0.9940   1
1164.554   0.5384   0.3579   0.9940   1
1164.614   0.9113   0.3852   0.9940   1
1164.674   0.9786   0.3914   0.9940   1
1164.733   0.8777   0.3839   0.9939   1
1164.793   0.8782   0.3845   0.9939   1
1164.853   0.5063   0.3543   0.9939   1
1164.913   0.4379   0.3480   0.9939   1
1164.973   0.9110   0.3854   0.9939   1
1165.033   0.9109   0.3875   0.9939   1
1165.092   0.7066   0.3691   0.9939   1
1165.152   0.6394   0.3644   0.9938   1
1165.212   1.0751   0.3955   0.9938   1
1165.272   0.8407   0.3798   0.9938   1
1165.332   0.8071   0.3785   0.9938   1
1165.391   0.5556   0.3598   0.9938   1
1165.451   0.6681   0.3698   0.9938   1
1165.511   0.8094   0.3803   0.9938   1
1165.571   1.0181   0.3934   0.9937   1
1165.631   0.7045   0.3731   0.9937   0
1165.691   0.7424   0.3741   0.9937   0
1165.750   0.6679   0.3691   0.9937   0
1165.810   0.6614   0.3672   0.9937   0
1165.870   1.0585   0.3970   0.9937   0
1165.930   0.8679   0.3813   0.9937   0
1165.990   0.6664   0.3646   0.9936   0
1166.049   0.5327   0.3536   0.9936   0
1166.109   0.8010   0.3758   0.9936   0
1166.169   0.6539   0.3770   0.9936   0
1166.229   1.2009   0.4681   0.9936   0
1166.289   1.1987   0.4661   0.9936   0
1166.349   0.8863   0.4404   0.9936   0
1166.408   0.8829   0.4379   0.9935   0
1166.468   0.7053   0.4233   0.9935   0
1166.528   0.5727   0.4106   0.9935   0
1166.588   0.7289   0.3682   0.9935   0
1166.648   0.9293   0.3831   0.9935   0
1166.708   0.8631   0.3780   0.9935   0
1166.767   0.5953   0.3580   0.9934   0
1166.827   0.6290   0.3592   0.9934   0
1166.887   0.7967   0.3745   0.9934   0
1166.947   0.5292   0.3512   0.9934   0
1167.007   0.6948   0.3644   0.9934   0
1167.066   0.7944   0.3708   0.9934   0
1167.126   0.6616   0.3613   0.9933   0
1167.186   0.6274   0.3576   0.9933   0
1167.246   0.6610   0.3618   0.9933   0
1167.306   0.5286   0.3509   0.9933   0
1167.365   0.7284   0.3671   0.9933   0
1167.425   0.6283   0.3599   0.9933   0
1167.485   0.6934   0.3628   0.9932   0
1167.545   0.3960   0.3380   0.9932   0
1167.605   0.6597   0.3602   0.9932   0
1167.665   0.6610   0.3603   0.9932   0
1167.724   0.6594   0.3602   0.9932   0
1167.784   0.5610   0.3528   0.9932   0
1167.844   0.6595   0.3597   0.9931   0
1167.904   0.6920   0.3624   0.9931   0
1167.964   0.5260   0.3480   0.9931   0
1168.024   0.5932   0.3547   0.9931   0
1168.083   0.5917   0.3544   0.9931   0
1168.143   0.3947   0.3364   0.9931   0
1168.203   0.2953   0.3273   0.9930   0
1168.263   0.5903   0.3540   0.9930   0
1168.323   0.6571   0.3585   0.9930   0
1168.382   0.8896   0.3797   0.9930   0
1168.442   0.6535   0.3606   0.9930   0
1168.502   0.6178   0.3579   0.9930   0
1168.562   0.5145   0.3501   0.9929   0
1168.622   0.8972   0.3806   0.9929   0
1168.682   0.4504   0.3431   0.9929   0
1168.741   0.4826   0.3471   0.9929   0
1168.801   0.5943   0.3577   0.9929   0
1168.861   0.4830   0.3465   0.9929   0
1168.921   0.6903   0.3640   0.9928   0
1168.981   0.4822   0.3468   0.9928   0
1169.041   0.6525   0.3609   0.9928   0
1169.100   0.4789   0.3450   0.9928   0
1169.160   0.6845   0.3625   0.9928   0
1169.220   0.4050   0.3379   0.9927   0
1169.280   0.7928   0.3685   0.9927   0
1169.340   0.6188   0.3532   0.9927   0
1169.399   0.4510   0.3385   0.9927   0
1169.459   0.4501   0.3396   0.9927   0
1169.519   0.4847   0.3409   0.9926   0
1169.579   0.4189   0.3369   0.9926   0
1169.639   0.9082   0.3742   0.9926   0
1169.698   0.4830   0.3410   0.9926   0
1169.758   0.5804   0.3491   0.9926   0
1169.818   0.7423   0.3613   0.9926   0
1169.878   0.3523   0.3296   0.9925   0
1169.938   0.7418   0.3618   0.9925   0
1169.998   0.2875   0.3237   0.9925   0
1170.057   0.3843   0.3322   0.9925   0
1170.117   0.8062   0.3656   0.9925   0
1170.177   0.3859   0.3323   0.9924   0
1170.237   0.5482   0.3456   0.9924   0
1170.297   0.7750   0.3649   0.9924   0
1170.357   0.9048   0.3727   0.9924   0
1170.416   0.7112   0.3574   0.9924   0
1170.476   0.7433   0.3611   0.9923   0
1170.536   0.4827   0.3379   0.9923   0
1170.596   0.3534   0.3290   0.9923   0
1170.656   0.3540   0.3278   0.9923   0
1170.715   0.5800   0.3477   0.9923   0
1170.775   0.5140   0.3422   0.9922   0
1170.835   0.4821   0.3385   0.9922   0
1170.895   0.3205   0.3245   0.9922   0
1170.955   0.2881   0.3213   0.9922   0
1171.015   0.5449   0.3435   0.9922   0
1171.074   0.3850   0.3304   0.9921   0
1171.134   0.3829   0.3297   0.9921   0
1171.194   0.4487   0.3365   0.9921   0
1171.254   0.4162   0.3325   0.9921   0
1171.314   0.6738   0.3531   0.9921   0
1171.373   0.2549   0.3186   0.9920   0
1171.433   0.4799   0.3385   0.9920   0
1171.493   0.3195   0.3231   0.9920   0
1171.553   0.3266   0.3253   0.9920   0
1171.613   0.3317   0.3268   0.9919   0
1171.673   0.4405   0.3380   0.9919   0
1171.732   0.3382   0.3286   0.9919   0
1171.792   0.6725   0.3558   0.9919   0
1171.852   0.3347   0.3275   0.9919   0
1171.912   0.5061   0.3431   0.9918   0
1171.972   0.3334   0.3278   0.9918   0
1172.031   0.3921   0.3317   0.9918   0
1172.091   0.1928   0.3122   0.9918   0
1172.151   0.2220   0.3149   0.9917   0
1172.211   0.5104   0.3408   0.9917   0
1172.271   0.2863   0.3209   0.9917   0
1172.331   0.2217   0.3151   0.9917   0
1172.390   0.4142   0.3324   0.9917   0
1172.450   0.3814   0.3299   0.9916   0
1172.510   0.3823   0.3296   0.9916   0
1172.570   0.4135   0.3323   0.9916   0
1172.630   0.4784   0.3372   0.9916   0
1172.689   0.3812   0.3300   0.9915   0
1172.749   0.3821   0.3287   0.9915   0
1172.809   0.4153   0.3319   0.9915   0
1172.869   0.2236   0.3149   0.9915   0
1172.929   0.2877   0.3211   0.9914   0
1172.989   0.2237   0.3153   0.9914   0
1173.048   0.2235   0.3150   0.9914   0
1173.108   0.3830   0.3297   0.9914   0
1173.168   0.3835   0.3290   0.9914   0
1173.228   0.5108   0.3414   0.9913   0
1173.288   0.4801   0.3387   0.9913   0
1173.348   0.5759   0.3464   0.9913   0
1173.407   0.4157   0.3315   0.9913   0
1173.467   0.5108   0.3399   0.9912   0
1173.527   0.5112   0.3400   0.9912   0
1173.587   0.4786   0.3387   0.9912   0
1173.647   0.2871   0.3208   0.9912   0
1173.706   0.5448   0.3430   0.9911   0
1173.766   0.5893   0.3485   0.9911   0
1173.826   0.5673   0.3490   0.9911   0
1173.886   0.4376   0.3378   0.9911   0
1173.946   0.5050   0.3426   0.9910   0
1174.005   0.3679   0.3318   0.9910   0
1174.065   0.4364   0.3378   0.9910   0
1174.125   0.2329   0.3187   0.9910   0
1174.185   0.3660   0.3309   0.9909   0
1174.245   0.3932   0.3321   0.9909   0
1174.305   0.2248   0.3162   0.9909   0
1174.365   0.2535   0.3187   0.9909   0
1174.424   0.4143   0.3336   0.9908   0
1174.484   0.3184   0.3241   0.9908   0
1174.544   0.2529   0.3185   0.9908   0
1174.604   0.2858   0.3221   0.9907   0
1174.664   0.1559   0.3100   0.9907   0
1174.723   0.2208   0.3164   0.9907   0
1174.783   0.3169   0.3248   0.9907   0
1174.843   0.0915   0.3038   0.9906   0
1174.903   0.3180   0.3254   0.9906   0
1174.963   0.2543   0.3198   0.9906   0
1175.022   0.3830   0.3304   0.9906   0
1175.082   0.2876   0.3218   0.9905   0
1175.142   0.2549   0.3199   0.9905   0
1175.202   0.4480   0.3371   0.9905   0
1175.262   0.2227   0.3168   0.9904   0
1175.322   0.4476   0.3367   0.9904   0
1175.381   0.2863   0.3221   0.9904   0
1175.441   0.2232   0.3170   0.9904   0
1175.501   0.3512   0.3292   0.9903   0
1175.561   0.3850   0.3321   0.9903   0
1175.621   0.3535   0.3283   0.9903   0
1175.681   0.5139   0.3428   0.9903   0
1175.740   0.2561   0.3209   0.9902   0
1175.800   0.3204   0.3267   0.9902   0
1175.860   0.3210   0.3269   0.9902   0
1175.920   0.4826   0.3411   0.9901   0
1175.980   0.4496   0.3392   0.9901   0
1176.039   0.4175   0.3354   0.9901   0
1176.099   0.3212   0.3268   0.9900   0
1176.159   0.4182   0.3360   0.9900   0
1176.219   0.2241   0.3183   0.9900   0
1176.279   0.3210   0.3266   0.9900   0
1176.339   0.3217   0.3272   0.9899   0
1176.398   0.1597   0.3122   0.9899   0
1176.458   0.3549   0.3311   0.9899   0
1176.518   0.4199   0.3372   0.9898   0
1176.578   0.1922   0.3161   0.9898   0
1176.638   0.1592   0.3131   0.9898   0
1176.698   0.3560   0.3312   0.9897   0
1176.757   0.3274   0.3298   0.9897   0
1176.817   0.2338   0.3223   0.9897   0
1176.877   0.4408   0.3421   0.9897   0
1176.937   0.4090   0.3387   0.9896   0
1176.997   0.4736   0.3452   0.9896   0
1177.056   0.2377   0.3224   0.9896   0
1177.116   0.3029   0.3295   0.9895   0
1177.176   0.4118   0.3388   0.9895   0
1177.236   0.4813   0.3461   0.9895   0
1177.296   0.1692   0.3179   0.9894   0
1177.355   0.2010   0.3208   0.9894   0
1177.415   0.2679   0.3260   0.9894   0
1177.475   0.2333   0.3234   0.9893   0
1177.535   0.4020   0.3391   0.9893   0
1177.595   0.4701   0.3431   0.9893   0
1177.655   0.3976   0.3385   0.9892   0
1177.714   0.3600   0.3335   0.9892   0
1177.774   0.5170   0.3479   0.9892   0
1177.834   0.4201   0.3392   0.9891   0
1177.894   0.4850   0.3460   0.9891   0
1177.954   0.1912   0.3192   0.9891   0
1178.014   0.7136   0.3635   0.9890   0
1178.073   0.4546   0.3429   0.9890   0
1178.133   0.3235   0.3318   0.9890   0
1178.193   0.6501   0.3597   0.9889   0
1178.253   0.5530   0.3511   0.9889   0
1178.313   0.4869   0.3459   0.9889   0
1178.372   0.3895   0.3375   0.9888   0
1178.432   0.4219   0.3407   0.9888   0
1178.492   0.5539   0.3523   0.9887   0
1178.552   0.3901   0.3386   0.9887   0
1178.612   0.6196   0.3574   0.9887   0
1178.672   0.3900   0.3392   0.9886   0
1178.731   0.8172   0.3736   0.9886   0
1178.791   0.3570   0.3365   0.9886   0
1178.851   0.8158   0.3753   0.9885   0
1178.911   0.6213   0.3592   0.9885   0
1178.971   0.6217   0.3599   0.9885   0
1179.030   0.4236   0.3422   0.9884   0
1179.090   0.7853   0.3700   0.9884   0
1179.150   0.4894   0.3480   0.9883   0
1179.210   0.9825   0.3870   0.9883   0
1179.270   0.6872   0.3638   0.9883   1
1179.330   0.9151   0.3798   0.9882   1
1179.389   0.6523   0.3614   0.9882   1
1179.449   0.5216   0.3499   0.9882   1
1179.509   1.0129   0.3888   0.9881   1
1179.569   0.5851   0.3554   0.9881   1
1179.629   0.7809   0.3698   0.9880   1
1179.688   0.9775   0.3842   0.9880   1
1179.748   0.5851   0.3544   0.9880   1
1179.808   0.8468   0.3748   0.9879   1
1179.868   0.9783   0.3844   0.9879   1
1179.928   1.0827   0.3914   0.9878   1
1179.988   0.9433   0.3842   0.9878   1
1180.047   1.1632   0.4021   0.9878   1
1180.107   0.7537   0.3719   0.9877   1
1180.167   0.8525   0.3791   0.9877   1
1180.227   0.9847   0.3873   0.9876   1
1180.287   1.0184   0.3901   0.9876   1
1180.346   0.7427   0.3692   0.9876   1
1180.406   0.9046   0.3800   0.9875   1
1180.466   0.8624   0.3753   0.9875   1
1180.526   0.6824   0.3617   0.9874   1
1180.586   1.1435   0.3660   0.9874   1
1180.646   1.1389   0.3934   0.9874   1
1180.705   0.8126   0.3691   0.9873   1
1180.765   0.7794   0.3675   0.9873   1
1180.825   0.7779   0.3672   0.9872   1
1180.885   0.7121   0.3622   0.9872   1
1180.945   0.8747   0.3755   0.9871   1
1181.005   0.9710   0.3815   0.9871   1
1181.064   0.9379   0.3789   0.9870   1
1181.124   0.8722   0.3727   0.9870   1
1181.184   0.7428   0.3632   0.9870   1
1181.244   0.7415   0.3639   0.9869   1
1181.304   0.6758   0.3588   0.9869   1
1181.363   0.8384   0.3709   0.9868   1
1181.423   0.7728   0.3655   0.9868   1
1181.483   0.9011   0.3741   0.9867   1
1181.543   0.7727   0.3645   0.9867   1
1181.603   0.7715   0.3646   0.9866   1
1181.662   0.5761   0.3492   0.9866   1
1181.722   0.8979   0.3731   0.9866   1
1181.782   0.5761   0.3491   0.9865   1
1181.842   0.7705   0.3644   0.9865   1
1181.902   0.7369   0.3610   0.9864   1
1181.962   0.6720   0.3561   0.9864   1
1182.021   0.9301   0.3758   0.9863   1
1182.081   0.7355   0.3598   0.9863   1
1182.141   1.0340   0.3833   0.9862   1
1182.201   1.1220   0.3907   0.9862   1
1182.261   0.6048   0.3530   0.9861   1
1182.321   1.1479   0.3929   0.9861   1
1182.380   0.9706   0.3818   0.9860   1
1182.440   0.9640   0.3791   0.9860   1
1182.500   0.7931   0.3655   0.9859   1
1182.560   0.9904   0.3807   0.9859   1
1182.620   1.0811   0.3869   0.9858   1
1182.679   0.6434   0.3504   0.9858   1
1182.739   0.7283   0.3570   0.9857   1
1182.799   0.7582   0.3601   0.9857   1
1182.859   0.8858   0.3698   0.9856   1
1182.919   0.8843   0.3698   0.9856   1
1182.979   0.8506   0.3664   0.9855   1
1183.038   0.8493   0.3647   0.9855   1
1183.098   0.9772   0.3742   0.9854   1
1183.158   0.9440   0.3728   0.9854   1
1183.218   0.8173   0.3608   0.9853   1
1183.278   0.7847   0.3593   0.9853   1
1183.338   0.5949   0.3445   0.9852   1
1183.397   0.6577   0.3506   0.9852   1
1183.457   0.9719   0.3728   0.9851   1
1183.517   1.0380   0.3765   0.9850   1
1183.577   0.7202   0.3538   0.9850   1
1183.637   0.7205   0.3538   0.9849   1
1183.696   0.9083   0.3674   0.9849   1
1183.756   0.6874   0.3511   0.9848   1
1183.816   0.7793   0.3580   0.9848   1
1183.876   1.0320   0.3752   0.9847   1
1183.936   0.6552   0.3457   0.9847   1
1183.995   0.7166   0.3511   0.9846   1
1184.055   0.7485   0.3540   0.9845   1
1184.115   0.5282   0.3365   0.9845   1
1184.175   0.7474   0.3537   0.9844   1
1184.235   0.9645   0.3704   0.9844   1
1184.295   0.9956   0.3702   0.9843   1
1184.354   1.0586   0.3765   0.9843   1
1184.414   0.4941   0.3333   0.9842   1
1184.474   0.4007   0.3245   0.9841   1
1184.534   0.6486   0.3443   0.9841   1
1184.594   0.7398   0.3516   0.9840   1
1184.654   0.8953   0.3623   0.9840   1
1184.713   0.8013   0.3553   0.9839   1
1184.773   0.6765   0.3450   0.9838   1
1184.833   0.7703   0.3532   0.9838   1
1184.893   0.5836   0.3372   0.9837   1
1184.953   0.6437   0.3420   0.9836   1
1185.012   1.0437   0.3718   0.9836   1
1185.072   0.5491   0.3342   0.9835   1
1185.132   0.5623   0.3354   0.9835   0
1185.192   0.4446   0.3271   0.9834   0
1185.252   0.4485   0.3277   0.9833   0
1185.312   0.4795   0.3298   0.9833   0
1185.371   0.7007   0.3476   0.9832   0
1185.431   0.4732   0.3282   0.9831   0
1185.491   0.4717   0.3269   0.9831   0
1185.551   0.5966   0.3369   0.9830   0
1185.611   0.5342   0.3316   0.9829   0
1185.670   0.6336   0.3396   0.9829   0
1185.730   0.4733   0.3277   0.9828   0
1185.790   0.6297   0.3393   0.9827   0
1185.850   0.5015   0.3285   0.9827   0
1185.910   0.5977   0.3358   0.9826   0
1185.970   0.8253   0.3530   0.9825   0
1186.029   0.4024   0.3191   0.9825   0
1186.089   0.5499   0.3290   0.9824   0
1186.149   0.6307   0.3352   0.9823   0
1186.209   0.6313   0.3364   0.9823   0
1186.269   0.5712   0.3300   0.9822   0
1186.328   0.5705   0.3295   0.9821   0
1186.388   0.5697   0.3296   0.9820   0
1186.448   0.7525   0.3436   0.9820   0
1186.508   0.8113   0.3475   0.9819   0
1186.568   0.5093   0.3236   0.9818   0
1186.628   0.5085   0.3237   0.9818   0
1186.687   0.3583   0.3108   0.9817   0
1186.747   0.4486   0.3179   0.9816   0
1186.807   0.6575   0.3346   0.9815   0
1186.867   0.6273   0.3320   0.9815   0
1186.927   0.3872   0.3112   0.9814   0
1186.986   0.5954   0.3283   0.9813   0
1187.046   0.4756   0.3188   0.9812   0
1187.106   0.5338   0.3244   0.9812   0
1187.166   0.6832   0.3365   0.9811   0
1187.226   0.4127   0.3133   0.9810   0
1187.286   0.6211   0.3301   0.9809   0
1187.345   0.7399   0.3402   0.9808   0
1187.405   0.6209   0.3309   0.9808   0
1187.465   0.7694   0.3412   0.9807   0
1187.525   0.6205   0.3289   0.9806   0
1187.585   0.8872   0.3472   0.9805   0
1187.645   0.5302   0.3213   0.9804   0
1187.704   0.5296   0.3218   0.9804   0
1187.764   0.9145   0.3509   0.9803   0
1187.824   0.4989   0.3190   0.9802   0
1187.884   0.8833   0.3480   0.9801   0
1187.944   0.7045   0.3353   0.9800   0
1188.003   0.7637   0.3402   0.9799   0
1188.063   0.5278   0.3210   0.9799   0
1188.123   0.4685   0.3160   0.9798   0
1188.183   0.7356   0.3359   0.9797   0
1188.243   0.6181   0.3273   0.9796   0
1188.302   0.7066   0.3336   0.9795   0
1188.362   0.9743   0.3537   0.9794   0
1188.422   0.4846   0.3168   0.9793   0
1188.482   0.4912   0.3190   0.9792   0
1188.542   0.3680   0.3085   0.9792   0
1188.602   0.8591   0.3480   0.9791   0
1188.661   0.9198   0.3517   0.9790   0
1188.721   0.6785   0.3336   0.9789   0
1188.781   0.9525   0.3553   0.9788   0
1188.841   0.6330   0.3287   0.9787   0
1188.901   0.7346   0.3339   0.9786   0
1188.961   0.6741   0.3285   0.9785   0
1189.020   0.6145   0.3248   0.9784   0
1189.080   0.9384   0.3498   0.9783   0
1189.140   0.8777   0.3446   0.9782   0
1189.200   0.8193   0.3388   0.9781   0
1189.260   0.7890   0.3389   0.9780   0
1189.319   0.9925   0.3518   0.9779   0
1189.379   0.9330   0.3488   0.9778   0
1189.439   1.0491   0.3548   0.9777   0
1189.499   0.8148   0.3381   0.9777   0
1189.559   0.9019   0.3444   0.9776   0
1189.619   0.6687   0.3266   0.9775   0
1189.678   0.6399   0.3252   0.9773   0
1189.738   0.6686   0.3263   0.9772   0
1189.798   0.5512   0.3164   0.9771   0
1189.858   0.5502   0.3177   0.9770   0
1189.918   0.4338   0.3074   0.9769   0
1189.978   0.6660   0.3275   0.9768   0
1190.037   0.4330   0.3075   0.9767   0
1190.097   0.4619   0.3096   0.9766   0
1190.157   0.1134   0.2782   0.9765   0
1190.217   0.1708   0.2834   0.9764   0
1190.277   0.0844   0.2750   0.9763   0
1190.336   -0.0029   0.2660   0.9762   0
1190.396   0.0544   0.2718   0.9761   0
1190.456   0.1121   0.2774   0.9760   0
1190.516   0.1114   0.2773   0.9759   0
1190.576   0.2859   0.2933   0.9757   0
1190.635   0.3225   0.2968   0.9756   0
1190.695   0.5391   0.3174   0.9755   0
1190.755   0.3275   0.2984   0.9754   0
1190.815   0.5352   0.3166   0.9753   0
1190.875   0.7172   0.3302   0.9752   0
1190.935   0.4488   0.3072   0.9751   0
1190.994   0.5972   0.3199   0.9749   0
1191.054   0.5285   0.3142   0.9748   0
1191.114   0.7712   0.3297   0.9747   0
1191.174   0.5126   0.3103   0.9746   0
1191.234   0.5983   0.3178   0.9745   0
1191.294   0.3692   0.2990   0.9743   0
1191.353   0.7132   0.3242   0.9742   0
1191.413   0.4852   0.3076   0.9741   0
1191.473   0.6561   0.3222   0.9740   0
1191.533   0.3990   0.3012   0.9738   0
1191.593   0.7142   0.3247   0.9737   0
1191.652   0.3991   0.3015   0.9736   0
1191.712   0.8274   0.3317   0.9735   0
1191.772   0.4851   0.3071   0.9733   0
1191.832   0.4840   0.3074   0.9732   0
1191.892   0.6837   0.3222   0.9731   0
1191.952   0.3706   0.2975   0.9729   0
1192.011   0.3129   0.2923   0.9728   0
1192.071   0.1127   0.2733   0.9727   0
1192.131   0.0841   0.2703   0.9725   0
1192.191   0.1125   0.2730   0.9724   0
1192.251   0.0271   0.2642   0.9723   0
1192.310   0.0555   0.2670   0.9721   0
1192.370   0.0268   0.2639   0.9720   0
1192.430   -0.0022   0.2609   0.9719   0
1192.490   -0.0027   0.2607   0.9717   0
1192.550   0.0256   0.2635   0.9716   0
1192.610   -0.0027   0.2605   0.9714   0
1192.669   0.0256   0.2632   0.9713   0
1192.729   0.0262   0.2631   0.9711   0
1192.789   -0.0020   0.2600   0.9710   0
1192.849   0.0259   0.2628   0.9708   0
1192.909   0.0256   0.2626   0.9707   0
1192.969   0.1103   0.2707   0.9706   0
1193.028   0.0535   0.2653   0.9704   0
1193.088   -0.0028   0.2593   0.9702   0
1193.148   -0.0034   0.2592   0.9701   0
1193.208   0.0248   0.2620   0.9699   0
1193.268   -0.0034   0.2589   0.9698   0
1193.327   0.0248   0.2617   0.9696   0
1193.387   0.1089   0.2700   0.9695   0
1193.447   0.0537   0.2644   0.9693   0
1193.507   0.1929   0.2776   0.9692   0
1193.567   0.3368   0.2915   0.9690   0
1193.626   0.3141   0.2903   0.9688   0
1193.686   0.5231   0.3086   0.9687   0
1193.746   0.4652   0.3026   0.9685   0
1193.806   0.5204   0.3070   0.9683   0
1193.866   0.4641   0.3021   0.9682   0
1193.926   0.5222   0.3065   0.9680   0
1193.985   0.5311   0.3083   0.9678   0
1194.045   0.5608   0.3118   0.9677   0
1194.105   0.4375   0.3016   0.9675   0
1194.165   0.5549   0.3094   0.9673   0
1194.225   0.5202   0.3067   0.9671   0
1194.285   0.5497   0.3094   0.9670   0
1194.344   0.4642   0.3019   0.9668   0
1194.404   0.5528   0.3090   0.9666   0
1194.464   0.6876   0.3184   0.9664   0
1194.524   0.7482   0.3214   0.9662   0
1194.584   0.4436   0.2970   0.9660   0
1194.643   0.3872   0.2917   0.9659   0
1194.703   0.6932   0.3167   0.9657   0
1194.763   0.6368   0.3121   0.9655   0
1194.823   0.6366   0.3126   0.9653   0
1194.883   0.3878   0.2913   0.9651   0
1194.943   0.1920   0.2745   0.9649   0
1195.002   0.1916   0.2743   0.9647   0
1195.062   0.1084   0.2661   0.9645   0
1195.122   0.0251   0.2576   0.9643   0
1195.182   0.0528   0.2603   0.9641   0
1195.242   -0.0027   0.2545   0.9639   0
1195.302   0.0250   0.2572   0.9637   0
1195.361   0.0525   0.2598   0.9635   0
1195.421   0.0805   0.2625   0.9633   0
1195.481   -0.0031   0.2539   0.9631   0
1195.541   0.0243   0.2566   0.9629   0
1195.601   0.0512   0.2593   0.9627   0
1195.660   0.0509   0.2590   0.9624   0
1195.720   -0.0045   0.2534   0.9622   0
1195.780   0.0497   0.2588   0.9620   0
1195.840   0.2419   0.2767   0.9618   0
1195.900   0.1871   0.2717   0.9616   0
1195.959   0.6273   0.3087   0.9613   0
1196.019   0.7112   0.3146   0.9611   0
1196.079   0.5174   0.2997   0.9609   0
1196.139   0.5166   0.2985   0.9606   0
1196.199   0.4616   0.2954   0.9604   0
1196.259   0.5426   0.3012   0.9602   0
1196.318   0.4871   0.2957   0.9599   0
1196.378   0.5141   0.3000   0.9597   0
1196.438   0.3767   0.2872   0.9595   0
1196.498   0.5135   0.2979   0.9592   0
1196.558   0.3496   0.2852   0.9590   0
1196.618   0.4308   0.2924   0.9587   0
1196.677   0.4853   0.2957   0.9585   0
1196.737   0.5806   0.3036   0.9582   0
1196.797   0.4497   0.2941   0.9580   0
1196.857   0.6294   0.3088   0.9577   0
1196.917   0.6881   0.3147   0.9575   0
1196.976   0.3644   0.2861   0.9572   0
1197.036   0.4492   0.2939   0.9569   0
1197.096   0.5373   0.3019   0.9567   0
1197.156   0.4246   0.2926   0.9564   1
1197.216   0.5919   0.3066   0.9561   1
1197.276   1.0864   0.3386   0.9559   1
1197.335   0.8389   0.3221   0.9556   1
1197.395   0.7298   0.3134   0.9553   1
1197.455   0.7290   0.3118   0.9550   1
1197.515   0.7275   0.3126   0.9547   1
1197.575   0.5399   0.2981   0.9545   1
1197.634   0.9711   0.3299   0.9542   1
1197.694   0.9168   0.3256   0.9539   1
1197.754   0.7278   0.3123   0.9536   1
1197.814   0.8347   0.3198   0.9533   1
1197.874   0.6190   0.3040   0.9530   1
1197.934   0.9954   0.3305   0.9527   1
1197.993   0.8058   0.3181   0.9524   1
1198.053   0.8046   0.3170   0.9521   1
1198.113   0.8582   0.3209   0.9517   1
1198.173   0.7237   0.3092   0.9514   1
1198.233   1.0184   0.3311   0.9511   1
1198.292   0.6954   0.3091   0.9508   1
1198.352   0.5884   0.2993   0.9505   1
1198.412   0.6946   0.3077   0.9501   1
1198.472   0.5612   0.2979   0.9498   1
1198.532   0.5884   0.2998   0.9495   1
1198.592   0.5597   0.2975   0.9491   1
1198.651   0.8276   0.3183   0.9488   1
1198.711   0.8799   0.3208   0.9485   1
1198.771   0.7728   0.3126   0.9481   0
1198.831   0.9067   0.3232   0.9478   0
1198.891   0.6656   0.3050   0.9474   0
1198.950   0.5942   0.2999   0.9470   0
1199.010   0.6057   0.3031   0.9467   0
1199.070   0.7565   0.3150   0.9463   0
1199.130   0.6468   0.2833   0.9459   0
1199.190   0.4699   0.2919   0.9456   0
1199.250   0.4143   0.2865   0.9452   0
1199.309   0.4425   0.2891   0.9448   0
1199.369   0.1369   0.2607   0.9444   0
1199.429   0.1079   0.2574   0.9440   0
1199.489   0.1031   0.2556   0.9436   0
1199.549   0.1294   0.2584   0.9432   0
1199.609   0.2083   0.2656   0.9428   0
1199.668   0.3928   0.2815   0.9424   0
1199.728   0.3660   0.2796   0.9420   0
1199.788   0.3927   0.2801   0.9416   0
1199.848   0.5513   0.2944   0.9412   0
1199.908   0.2606   0.2701   0.9408   0
1199.967   0.3928   0.2805   0.9403   0
1200.027   0.3934   0.2811   0.9399   0
1200.087   0.1552   0.2595   0.9395   0
1200.147   0.0498   0.2493   0.9390   0
1200.207   0.1820   0.2618   0.9386   0
1200.266   0.1559   0.2591   0.9381   0
1200.326   0.2346   0.2666   0.9377   0
1200.386   0.2875   0.2711   0.9372   0
1200.446   0.4982   0.2878   0.9367   0
1200.506   0.2083   0.2637   0.9363   0
1200.566   0.1292   0.2563   0.9358   0
1200.625   0.1561   0.2584   0.9353   0
1200.685   0.2614   0.2680   0.9348   0
1200.745   0.1562   0.2582   0.9343   0
1200.805   0.3399   0.2742   0.9338   0
1200.865   0.2610   0.2680   0.9333   0
1200.925   0.2609   0.2674   0.9328   0
1200.984   0.3909   0.2784   0.9323   0
1201.044   0.2858   0.2695   0.9318   0
1201.104   0.3907   0.2791   0.9313   0
1201.164   0.3381   0.2735   0.9307   0
1201.224   0.3112   0.2714   0.9302   0
1201.283   0.1285   0.2546   0.9296   0
1201.343   0.1287   0.2544   0.9291   0
1201.403   0.0246   0.2442   0.9285   0
1201.463   0.0510   0.2467   0.9280   0
1201.523   0.0768   0.2492   0.9274   0
1201.583   0.0244   0.2439   0.9268   0
1201.642   0.0242   0.2437   0.9262   0
1201.702   0.0242   0.2436   0.9256   0
1201.762   0.1022   0.2513   0.9250   0
1201.822   0.1801   0.2585   0.9244   0
1201.882   0.0248   0.2433   0.9238   0
1201.942   0.0255   0.2436   0.9232   0
1202.001   0.1090   0.2528   0.9225   0
1202.061   -0.0006   0.2416   0.9219   0
1202.121   0.0266   0.2442   0.9213   0
1202.181   0.0264   0.2438   0.9206   0
1202.241   -0.0007   0.2409   0.9199   0
1202.300   0.0255   0.2436   0.9193   0
1202.360   0.1356   0.2551   0.9186   0
1202.420   0.0543   0.2466   0.9179   0
1202.480   -0.0004   0.2409   0.9172   0
1202.540   0.0543   0.2464   0.9165   0
1202.599   0.0808   0.2487   0.9158   0
1202.659   0.0536   0.2457   0.9151   0
1202.719   0.0272   0.2431   0.9143   0
1202.779   0.1627   0.2571   0.9136   0
1202.839   0.2671   0.2662   0.9128   0
1202.899   0.2100   0.2605   0.9121   0
1202.958   0.2060   0.2599   0.9113   0
1203.018   0.3590   0.2728   0.9105   0
1203.078   0.2041   0.2588   0.9097   0
1203.138   0.2298   0.2614   0.9089   0
1203.198   0.2810   0.2655   0.9081   0
1203.258   0.1773   0.2566   0.9073   0
1203.317   0.2543   0.2635   0.9065   0
1203.377   0.2799   0.2653   0.9056   0
1203.437   0.3820   0.2742   0.9048   0
1203.497   0.2010   0.2586   0.9039   0
1203.557   0.3807   0.2744   0.9030   0
1203.616   0.4324   0.2772   0.9021   0
1203.676   0.3034   0.2667   0.9012   0
1203.736   0.4057   0.2747   0.9003   0
1203.796   0.3808   0.2735   0.8994   0
1203.856   0.2516   0.2626   0.8985   0
1203.916   0.3811   0.2734   0.8975   0
1203.975   0.4847   0.2820   0.8965   0
1204.035   0.2535   0.2622   0.8956   0
1204.095   0.2276   0.2592   0.8946   0
1204.155   0.2781   0.2645   0.8936   0
1204.215   0.3547   0.2703   0.8925   0
1204.274   0.2781   0.2640   0.8915   0
1204.334   0.3555   0.2708   0.8904   0
1204.394   0.5345   0.2848   0.8894   0
1204.454   0.3559   0.2711   0.8883   0
1204.514   0.3811   0.2733   0.8872   0
1204.574   0.4571   0.2795   0.8861   0
1204.633   0.3041   0.2659   0.8849   0
1204.693   0.3802   0.2730   0.8838   0
1204.753   0.4569   0.2787   0.8826   0
1204.813   0.5078   0.2826   0.8815   0
1204.873   0.2785   0.2636   0.8803   0
1204.932   0.5580   0.2856   0.8790   0
1204.992   0.4568   0.2793   0.8778   0
1205.052   0.4048   0.2743   0.8766   0
1205.112   0.5071   0.2833   0.8753   0
1205.172   0.4100   0.2748   0.8740   0
1205.232   0.5042   0.2845   0.8727   0
1205.291   0.3472   0.2720   0.8713   0
1205.351   0.2378   0.2614   0.8700   0
1205.411   0.4758   0.2819   0.8686   0
1205.471   0.3412   0.2704   0.8672   0
1205.531   0.5589   0.2883   0.8658   0
1205.590   0.2109   0.2587   0.8644   0
1205.650   0.3115   0.2662   0.8629   0
1205.710   0.6163   0.2898   0.8614   0
1205.770   0.2773   0.2628   0.8599   0
1205.830   0.2769   0.2628   0.8584   0
1205.890   0.2265   0.2577   0.8568   0
1205.949   0.1756   0.2531   0.8552   0
1206.009   0.2521   0.2596   0.8536   0
1206.069   0.1241   0.2484   0.8520   0
1206.129   0.0726   0.2433   0.8503   0
1206.189   0.0217   0.2382   0.8486   0
1206.249   0.0214   0.2381   0.8469   0
1206.308   0.0206   0.2381   0.8452   0
1206.368   0.0461   0.2405   0.8434   0
1206.428   -0.0042   0.2354   0.8416   0
1206.488   -0.0039   0.2354   0.8398   0
1206.548   0.0216   0.2379   0.8379   0
1206.607   0.0217   0.2379   0.8360   0
1206.667   0.0477   0.2404   0.8341   0
1206.727   0.0477   0.2403   0.8321   0
1206.787   0.0477   0.2402   0.8301   0
1206.847   0.0728   0.2427   0.8281   0
1206.906   0.0980   0.2453   0.8260   0
1206.966   0.1483   0.2497   0.8239   0
1207.026   0.1746   0.2525   0.8217   0
1207.086   0.2760   0.2614   0.8196   0
1207.146   0.3266   0.2654   0.8173   0
1207.206   0.3773   0.2696   0.8151   0
1207.266   0.3525   0.2675   0.8128   0
1207.325   0.3271   0.2657   0.8104   0
1207.385   0.4117   0.2735   0.8080   0
1207.445   0.3164   0.2664   0.8056   0
1207.505   0.2650   0.2617   0.8031   0
1207.565   0.3672   0.2708   0.8006   0
1207.624   0.4194   0.2754   0.7980   0
1207.684   0.5231   0.2819   0.7954   0
1207.744   0.4497   0.2786   0.7928   0
1207.804   0.4757   0.2795   0.7901   0
1207.864   0.4130   0.2737   0.7873   0
1207.923   0.3299   0.2664   0.7845   0
1207.983   0.4525   0.2746   0.7816   0
1208.043   0.4015   0.2715   0.7787   0
1208.103   0.1997   0.2538   0.7757   0
1208.163   0.1487   0.2489   0.7726   0
1208.223   0.0471   0.2392   0.7695   0
1208.282   0.0464   0.2392   0.7664   0
1208.342   -0.0039   0.2341   0.7631   0
1208.402   0.0215   0.2366   0.7598   0
1208.462   0.0469   0.2391   0.7565   0
1208.522   -0.0035   0.2340   0.7531   0
1208.582   -0.0038   0.2339   0.7496   0
1208.641   -0.0038   0.2339   0.7460   0
1208.701   -0.0038   0.2339   0.7424   0
1208.761   -0.0041   0.2338   0.7387   0
1208.821   0.0467   0.2389   0.7349   0
1208.881   -0.0037   0.2338   0.7310   0
1208.940   -0.0037   0.2337   0.7271   0
1209.000   0.0213   0.2363   0.7230   0
1209.060   -0.0036   0.2337   0.7189   0
1209.120   0.0718   0.2412   0.7147   0
1209.180   0.1231   0.2461   0.7105   0
1209.240   0.2744   0.2601   0.7061   0
1209.299   0.4259   0.2724   0.7016   0
1209.359   0.5517   0.2822   0.6970   0
1209.419   0.5020   0.2791   0.6924   0
1209.479   0.5267   0.2801   0.6876   0
1209.539   0.4764   0.2768   0.6828   0
1209.599   0.5523   0.2823   0.6778   0
1209.658   0.5012   0.2780   0.6727   0
1209.718   0.5000   0.2788   0.6675   0
1209.778   0.5263   0.2809   0.6622   0
1209.838   0.4994   0.2781   0.6568   0
1209.898   0.5504   0.2825   0.6512   0
1209.957   0.4498   0.2735   0.6456   0
1210.017   0.4497   0.2736   0.6398   0
1210.077   0.4744   0.2759   0.6339   0
1210.137   0.6244   0.2875   0.6278   0
1210.197   0.4237   0.2726   0.6216   0
1210.256   0.5738   0.2840   0.6153   0
1210.316   0.5737   0.2833   0.6088   0
1210.376   0.4371   0.2734   0.6022   0
1210.436   0.4717   0.2782   0.5955   1
1210.496   0.4454   0.2762   0.5885   1
1210.556   0.5212   0.2811   0.5815   1
1210.615   0.7238   0.2970   0.5742   1
1210.675   0.7053   0.2952   0.5668   1
1210.735   0.4689   0.2764   0.5593   1
1210.795   0.5696   0.2850   0.5516   1
1210.855   0.6901   0.2957   0.5437   1
1210.915   0.3966   0.2712   0.5356   1
1210.974   0.2849   0.2612   0.5273   1
1211.034   0.4414   0.2749   0.5189   1
1211.094   0.3384   0.2663   0.5103   1
1211.154   0.5013   0.2806   0.5014   1
1211.214   0.3100   0.2629   0.4924   1
1211.273   0.4320   0.2722   0.4832   1
1211.333   0.5455   0.2798   0.4738   1
1211.393   0.4217   0.2701   0.4642   1
1211.453   0.3220   0.2626   0.4544   1
1211.513   0.4215   0.2706   0.4444   1
1211.573   0.2711   0.2574   0.4342   1
1211.632   0.3466   0.2641   0.4238   1
1211.692   0.2214   0.2531   0.4132   1
1211.752   0.2960   0.2588   0.4024   1
1211.812   0.3700   0.2657   0.3913   1
1211.872   0.3445   0.2639   0.3801   1
1211.931   0.3685   0.2662   0.3687   1
1211.991   0.2935   0.2589   0.3571   1
1212.051   0.3423   0.2631   0.3453   1
1212.111   0.2437   0.2544   0.3333   1
1212.171   0.3918   0.2674   0.3211   1
1212.231   0.1934   0.2497   0.3088   1
1212.290   0.1931   0.2494   0.2963   1
1212.350   0.1686   0.2476   0.2837   1
1212.410   0.1199   0.2428   0.2709   1
1212.470   0.0949   0.2403   0.2581   1
1212.530   0.1202   0.2430   0.2451   1
1212.589   0.2450   0.2541   0.2321   1
1212.649   0.1950   0.2496   0.2191   1
1212.709   0.2204   0.2520   0.2060   1
1212.769   0.1462   0.2451   0.1930   1
1212.829   0.1218   0.2427   0.1800   1
1212.889   0.1472   0.2445   0.1671   1
1212.948   0.0979   0.2398   0.1544   1
1213.008   0.0489   0.2352   0.1418   1
1213.068   0.0735   0.2376   0.1294   1
1213.128   0.0983   0.2397   0.1174   1
1213.188   0.0484   0.2350   0.1056   1
1213.247   0.0729   0.2374   0.0943   1
1213.307   0.0971   0.2398   0.0834   1
1213.367   0.1460   0.2444   0.0730   1
1213.427   0.0973   0.2394   0.0631   1
1213.487   0.0228   0.2322   0.0538   1
1213.547   0.0228   0.2321   0.0449   1
1213.606   0.0226   0.2322   0.0363   1
1213.666   0.0489   0.2357   0.0276   1
1213.726   0.0228   0.2330   0.0186   1
1213.786   -0.0033   0.2302   0.0097   1
1213.846   -0.0033   0.2301   0.0031   1
1213.906   0.0499   0.2360   0.0005   1
1213.965   -0.0033   0.2303   0.0000   1
1214.025   -0.0032   0.2296   0.0000   1
1214.085   0.0214   0.2316   0.0000   1
1214.145   0.0210   0.2315   -0.0000   0
1214.205   -0.0036   0.2289   0.0000   0
1214.264   -0.0042   0.2289   0.0000   0
1214.324   0.0209   0.2313   0.0000   0
1214.384   0.0455   0.2334   0.0000   0
1214.444   0.0450   0.2337   0.0000   0
1214.504   0.0193   0.2311   0.0000   0
1214.563   0.0660   0.2358   -0.0000   0
1214.623   0.0151   0.2310   0.0000   0
1214.683   0.0138   0.2309   0.0000   0
1214.743   0.1340   0.2419   0.0000   0
1214.803   0.4242   0.2675   0.0000   0
1214.863   1.2526   0.3229   0.0000   0
1214.922   2.2249   0.3762   0.0000   0
1214.982   3.3457   0.4243   0.0000   0
1215.042   4.8326   0.4795   -0.0000   0
1215.102   6.7328   0.5392   0.0000   0
1215.162   8.8054   0.5963   -0.0000   0
1215.222   9.4081   0.6110   -0.0000   0
1215.281   12.6590   0.6865   -0.0000   0
1215.341   13.5308   0.7049   0.0000   0
1215.401   16.0453   0.7556   0.0000   0
1215.461   16.8704   0.7705   0.0000   0
1215.521   15.6417   0.7474   0.0000   0
1215.580   16.6147   0.7657   -0.0000   0
1215.640   16.4400   0.7625   0.0000   0
1215.700   16.7792   0.7685   0.0000   0
1215.760   16.9505   0.7720   -0.0000   0
1215.820   14.3608   0.7272   -0.0000   0
1215.880   15.7762   0.7649   0.0000   0
1215.939   11.7859   0.6795   0.0000   0
1215.999   10.4864   0.6485   -0.0000   0
1216.059   9.1356   0.6150   -0.0000   0
1216.119   6.5850   0.5455   0.0000   0
1216.179   5.3034   0.5035   0.0000   0
1216.239   4.1072   0.4583   -0.0000   0
1216.298   2.1784   0.3726   -0.0000   0
1216.358   1.2259   0.3199   -0.0000   0
1216.418   0.4496   0.2670   -0.0000   0
1216.478   0.1359   0.2406   0.0000   0
1216.538   -0.0077   0.2266   -0.0000   0
1216.597   -0.0061   0.2265   0.0000   0
1216.657   0.0191   0.2289   0.0000   0
1216.717   0.0195   0.2289   -0.0000   0
1216.777   -0.0049   0.2263   -0.0000   0
1216.837   -0.0054   0.2263   0.0000   0
1216.896   -0.0055   0.2262   0.0000   0
1216.956   -0.0061   0.2262   0.0000   1
1217.016   0.0178   0.2285   -0.0000   1
1217.076   0.0172   0.2284   0.0000   1
1217.136   -0.0079   0.2260   0.0000   1
1217.196   -0.0073   0.2259   0.0000   1
1217.255   -0.0073   0.2259   -0.0000   1
1217.315   -0.0073   0.2258   -0.0000   1
1217.375   -0.0069   0.2257   -0.0000   1
1217.435   0.0424   0.2305   0.0000   1
1217.495   -0.0059   0.2256   -0.0000   1
1217.555   0.0177   0.2280   0.0000   1
1217.614   -0.0063   0.2255   0.0000   1
1217.674   -0.0060   0.2087   -0.0000   1
1217.734   0.0668   0.2326   0.0000   1
1217.794   -0.0049   0.2253   -0.0000   1
1217.854   -0.0049   0.2253   -0.0000   1
1217.913   0.0194   0.2276   -0.0000   1
1217.973   -0.0046   0.2252   -0.0000   1
1218.033   -0.0042   0.2251   0.0000   1
1218.093   -0.0035   0.2250   0.0000   1
1218.153   -0.0036   0.2250   0.0000   1
1218.213   -0.0036   0.2249   0.0000   1
1218.272   -0.0040   0.2249   0.0000   1
1218.332   0.0200   0.2272   0.0000   1
1218.392   -0.0042   0.2248   0.0000   1
1218.452   0.0201   0.2271   0.0000   1
1218.512   -0.0033   0.2247   0.0001   1
1218.571   -0.0030   0.2246   0.0003   1
1218.631   0.0212   0.2270   0.0007   1
1218.691   -0.0030   0.2245   0.0015   1
1218.751   -0.0030   0.2244   0.0029   1
1218.811   -0.0031   0.2249   0.0051   1
1218.871   -0.0028   0.2252   0.0083   1
1218.930   0.0227   0.2277   0.0125   1
1218.990   -0.0025   0.2250   0.0179   1
1219.050   0.0233   0.2278   0.0244   1
1219.110   -0.0019   0.2254   0.0321   1
1219.170   -0.0026   0.2247   0.0409   1
1219.229   0.0214   0.2268   0.0506   1
1219.289   0.0989   0.2352   0.0613   1
1219.349   0.0488   0.2305   0.0728   1
1219.409   0.0476   0.2300   0.0849   1
1219.469   0.0479   0.2297   0.0977   1
1219.529   0.1244   0.2379   0.1110   1
1219.588   0.0477   0.2298   0.1246   1
1219.648   0.0721   0.2318   0.1386   1
1219.708   0.1421   0.2377   0.1528   1
1219.768   0.1178   0.2356   0.1672   1
1219.828   0.0934   0.2331   0.1816   1
1219.887   0.1901   0.2424   0.1961   1
1219.947   0.2388   0.2464   0.2106   1
1220.007   0.1660   0.2394   0.2251   1
1220.067   0.0944   0.2330   0.2394   1
1220.127   0.1905   0.2419   0.2537   1
1220.187   0.2881   0.2510   0.2678   1
1220.246   0.2883   0.2504   0.2817   1
1220.306   0.1914   0.2414   0.2954   1
1220.366   0.1914   0.2418   0.3089   1
1220.426   0.3108   0.2518   0.3222   1
1220.486   0.3586   0.2570   0.3353   1
1220.546   0.3358   0.2546   0.3481   1
1220.605   0.2395   0.2457   0.3607   1
1220.665   0.3841   0.2584   0.3730   1
1220.725   0.3120   0.2523   0.3851   1
1220.785   0.2401   0.2454   0.3969   1
1220.845   0.2158   0.2439   0.4084   1
1220.904   0.3838   0.2580   0.4198   1
1220.964   0.3363   0.2541   0.4308   1
1221.024   0.3120   0.2507   0.4417   1
1221.084   0.4801   0.2648   0.4522   1
1221.144   0.5045   0.2674   0.4626   1
1221.203   0.2394   0.2455   0.4727   1
1221.263   0.2400   0.2455   0.4825   1
1221.323   0.5030   0.2666   0.4921   1
1221.383   0.4080   0.2592   0.5015   1
1221.443   0.2864   0.2490   0.5107   1
1221.503   0.2870   0.2487   0.5197   1
1221.562   0.4787   0.2652   0.5284   1
1221.622   0.4067   0.2589   0.5370   1
1221.682   0.4308   0.2607   0.5453   1
1221.742   0.5248   0.2682   0.5535   0
1221.802   0.3101   0.2510   0.5614   0
1221.862   0.5728   0.2720   0.5692   0
1221.921   0.4768   0.2639   0.5767   0
1221.981   0.2658   0.2471   0.5841   0
1222.041   0.5949   0.2756   0.5914   0
1222.101   0.4513   0.2642   0.5984   0
1222.161   0.7294   0.2876   0.6053   0
1222.220   0.2715   0.2492   0.6120   0
1222.280   0.2740   0.2497   0.6186   0
1222.340   0.4509   0.2642   0.6250   0
1222.400   0.5210   0.2701   0.6313   0
1222.460   0.3376   0.2534   0.6374   0
1222.520   0.5497   0.2690   0.6434   0
1222.579   0.5005   0.2646   0.6492   0
1222.639   0.4764   0.2647   0.6549   0
1222.699   0.4763   0.2637   0.6605   0
1222.759   0.5712   0.2711   0.6660   0
1222.819   0.3812   0.2564   0.6713   0
1222.879   0.5003   0.2656   0.6765   0
1222.938   0.3805   0.2566   0.6816   0
1222.998   0.5715   0.2708   0.6866   0
1223.058   0.6441   0.2767   0.6915   0
1223.118   0.5955   0.2730   0.6963   0
1223.178   0.4277   0.2586   0.7009   0
1223.237   0.5947   0.2728   0.7055   0
1223.297   0.4271   0.2594   0.7099   0
1223.357   0.5944   0.2727   0.7143   0
1223.417   0.5471   0.2694   0.7186   0
1223.477   0.5219   0.2665   0.7228   0
1223.536   0.6882   0.2798   0.7269   0
1223.596   0.6649   0.2767   0.7309   0
1223.656   0.6879   0.2784   0.7348   0
1223.716   0.7114   0.2812   0.7386   0
1223.776   0.5202   0.2659   0.7424   0
1223.836   0.5675   0.2692   0.7461   0
1223.895   0.7110   0.2803   0.7497   0
1223.955   0.5206   0.2659   0.7532   0
1224.015   0.6391   0.2751   0.7567   0
1224.075   0.4959   0.2644   0.7601   0
1224.135   0.2825   0.2465   0.7634   0
1224.195   0.6441   0.2764   0.7667   0
1224.254   0.5659   0.2726   0.7699   0
1224.314   0.6499   0.2792   0.7730   0
1224.374   0.6502   0.2790   0.7761   0
1224.434   0.3951   0.2580   0.7791   0
1224.494   0.5686   0.2710   0.7820   0
1224.553   0.6213   0.2752   0.7849   0
1224.613   0.9597   0.2983   0.7878   0
1224.673   0.5718   0.2700   0.7905   0
1224.733   0.5185   0.2649   0.7933   0
1224.793   0.7800   0.2853   0.7960   0
1224.853   0.6361   0.2748   0.7986   0
1224.912   0.4938   0.2632   0.8012   0
1224.972   0.6827   0.2765   0.8037   0
1225.032   0.6830   0.2762   0.8062   0
1225.092   0.5157   0.2654   0.8086   0
1225.152   0.7042   0.2790   0.8110   0
1225.211   0.7521   0.2819   0.8134   0
1225.271   0.5628   0.2688   0.8157   0
1225.331   0.4916   0.2631   0.8180   0
1225.391   0.7035   0.2776   0.8202   0
1225.451   0.7529   0.2819   0.8224   0
1225.511   0.7985   0.2835   0.8245   0
1225.570   0.6357   0.2727   0.8266   0
1225.630   0.7297   0.2804   0.8287   0
1225.690   1.0127   0.2994   0.8307   0
1225.750   0.7066   0.2783   0.8327   0
1225.810   0.5645   0.2686   0.8347   0
1225.870   1.0136   0.3005   0.8366   0
1225.929   0.5655   0.2680   0.8385   0
1225.989   0.7548   0.2818   0.8404   1
1226.049   0.8033   0.2852   0.8423   1
1226.109   0.8029   0.2865   0.8441   1
1226.169   0.7795   0.2822   0.8458   1
1226.228   0.6127   0.2712   0.8476   1
1226.288   0.9431   0.2938   0.8493   1
1226.348   0.7073   0.2785   0.8510   1
1226.408   0.8718   0.2903   0.8526   1
1226.468   0.6821   0.2769   0.8543   1
1226.527   1.0112   0.2983   0.8559   1
1226.587   0.7998   0.2844   0.8575   1
1226.647   0.7288   0.2787   0.8590   1
1226.707   0.7539   0.2814   0.8606   1
1226.767   0.8950   0.2909   0.8621   1
1226.827   0.9641   0.2957   0.8635   1
1226.886   0.6844   0.2764   0.8650   1
1226.946   1.0128   0.2990   0.8664   1
1227.006   0.7053   0.2784   0.8679   1
1227.066   0.5855   0.2684   0.8692   1
1227.126   0.8938   0.2896   0.8706   1
1227.186   0.8171   0.2866   0.8720   1
1227.245   0.8606   0.2906   0.8733   1
1227.305   0.8437   0.2904   0.8746   1
1227.365   0.8690   0.2933   0.8759   1
1227.425   1.0038   0.3006   0.8772   1
1227.485   0.8398   0.2903   0.8784   1
1227.544   0.9954   0.3014   0.8796   1
1227.604   1.0246   0.3038   0.8809   1
1227.664   0.7932   0.2874   0.8821   1
1227.724   0.8700   0.2930   0.8832   1
1227.784   0.9184   0.2960   0.8844   0
1227.844   0.7883   0.2858   0.8855   0
1227.903   0.7425   0.2826   0.8867   0
1227.963   0.6925   0.2790   0.8878   0
1228.023   0.7110   0.2798   0.8889   0
1228.083   0.6863   0.2763   0.8899   0
1228.143   0.5877   0.2680   0.8910   0
1228.203   0.5646   0.2667   0.8921   0
1228.262   0.3298   0.2477   0.8931   0
1228.322   0.7298   0.2793   0.8941   0
1228.382   0.6358   0.2706   0.8951   0
1228.442   0.8477   0.2866   0.8961   0
1228.502   0.6116   0.2701   0.8971   0
1228.561   0.6349   0.2706   0.8980   0
1228.621   0.7275   0.2781   0.8990   0
1228.681   0.5152   0.2627   0.8999   0
1228.741   0.6094   0.2694   0.9008   0
1228.801   0.5858   0.2674   0.9018   0
1228.860   0.7515   0.2786   0.9027   0
1228.920   0.7741   0.2808   0.9035   0
1228.980   0.8438   0.2853   0.9044   0
1229.040   0.6344   0.2714   0.9053   0
1229.100   0.6571   0.2734   0.9061   0
1229.160   0.5636   0.2651   0.9070   0
1229.219   0.7036   0.2764   0.9078   0
1229.279   0.6327   0.2705   0.9086   0
1229.339   0.6562   0.2719   0.9094   0
1229.399   0.8438   0.2865   0.9102   0
1229.459   0.5624   0.2653   0.9110   0
1229.519   0.5858   0.2672   0.9118   0
1229.578   0.6809   0.2735   0.9125   0
1229.638   0.7271   0.2776   0.9133   0
1229.698   0.7036   0.2740   0.9141   0
1229.758   0.6796   0.2738   0.9148   0
1229.818   0.4918   0.2598   0.9155   0
1229.877   0.5862   0.2678   0.9162   0
1229.937   0.5618   0.2651   0.9169   0
1229.997   0.5390   0.2632   0.9176   0
1230.057   0.6795   0.2744   0.9183   0
1230.117   0.7278   0.2767   0.9190   0
1230.177   0.9620   0.2923   0.9197   0
1230.236   0.7984   0.2828   0.9204   0
1230.296   0.6559   0.2721   0.9210   0
1230.356   0.6265   0.2708   0.9217   0
1230.416   0.7795   0.2816   0.9223   0
1230.476   0.6922   0.2777   0.9229   0
1230.535   0.5468   0.2668   0.9236   0
1230.595   0.7144   0.2798   0.9242   0
1230.655   0.7324   0.2802   0.9248   0
1230.715   0.5144   0.2629   0.9254   0
1230.775   0.3701   0.2511   0.9260   0
1230.835   0.5042   0.2616   0.9266   0
1230.894   0.7734   0.2809   0.9272   0
1230.954   0.6802   0.2737   0.9278   0
1231.014   0.7022   0.2742   0.9283   0
1231.074   0.5375   0.2625   0.9289   0
1231.134   0.5369   0.2618   0.9294   0
1231.193   0.7958   0.2817   0.9300   0
1231.253   0.6311   0.2700   0.9305   0
1231.313   0.7482   0.2774   0.9311   0
1231.373   0.7019   0.2753   0.9316   0
1231.433   0.5370   0.2622   0.9321   0
1231.493   0.5373   0.2630   0.9327   0
1231.552   0.7941   0.2811   0.9332   0
1231.612   0.4450   0.2547   0.9337   0
1231.672   0.6780   0.2740   0.9342   0
1231.732   0.7255   0.2749   0.9347   0
1231.792   0.4913   0.2589   0.9352   0
1231.851   0.6545   0.2710   0.9356   0
1231.911   0.5145   0.2600   0.9361   0
1231.971   0.3970   0.2509   0.9366   0
1232.031   0.4918   0.2592   0.9371   0
1232.091   0.4677   0.2558   0.9375   0
1232.151   0.3036   0.2434   0.9380   0
1232.210   0.5608   0.2634   0.9384   0
1232.270   0.3975   0.2513   0.9389   0
1232.330   0.2570   0.2388   0.9393   0
1232.390   0.4433   0.2542   0.9398   0
1232.450   0.3508   0.2463   0.9402   0
1232.510   0.3496   0.2458   0.9406   0
1232.569   0.4077   0.2529   0.9411   0
1232.629   0.4617   0.2578   0.9415   0
1232.689   0.3938   0.2524   0.9419   0
1232.749   0.4475   0.2577   0.9423   0
1232.809   0.4165   0.2542   0.9427   0
1232.868   0.4159   0.2547   0.9431   0
1232.928   0.4155   0.2542   0.9435   0
1232.988   0.6128   0.2707   0.9439   0
1233.048   0.4513   0.2551   0.9443   0
1233.108   0.6055   0.2655   0.9447   0
1233.167   0.3482   0.2464   0.9451   0
1233.227   0.3725   0.2482   0.9455   0
1233.287   0.5123   0.2602   0.9458   0
1233.347   0.4657   0.2567   0.9462   0
1233.407   0.4422   0.2535   0.9466   0
1233.467   0.4893   0.2581   0.9469   0
1233.526   0.6054   0.2655   0.9473   0
1233.586   0.6757   0.2722   0.9477   0
1233.646   0.5122   0.2576   0.9480   0
1233.706   0.3953   0.2495   0.9484   0
1233.766   0.4888   0.2567   0.9487   0
1233.826   0.3952   0.2500   0.9490   0
1233.885   0.5820   0.2648   0.9494   0
1233.945   0.3488   0.2461   0.9497   0
1234.005   0.7233   0.2752   0.9500   0
1234.065   0.6067   0.2654   0.9504   0
1234.125   0.4411   0.2536   0.9507   0
1234.184   0.4879   0.2559   0.9510   0
1234.244   0.6743   0.2711   0.9513   0
1234.304   0.4648   0.2551   0.9517   0
1234.364   0.5347   0.2609   0.9520   0
1234.424   0.5585   0.2621   0.9523   0
1234.484   0.3959   0.2498   0.9526   0
1234.543   0.6304   0.2682   0.9529   0
1234.603   0.4899   0.2565   0.9532   0
1234.663   0.4429   0.2532   0.9535   0
1234.723   0.5829   0.2644   0.9538   0
1234.783   0.7000   0.2729   0.9541   0
1234.843   0.5602   0.2624   0.9544   0
1234.902   0.3738   0.2466   0.9547   0
1234.962   0.8162   0.2812   0.9549   0
1235.022   0.5592   0.2624   0.9552   0
1235.082   0.6767   0.2710   0.9555   0
1235.142   0.5138   0.2585   0.9558   0
1235.201   0.3034   0.2410   0.9561   0
1235.261   0.4902   0.2560   0.9563   0
1235.321   0.3257   0.2427   0.9566   0
1235.381   0.5593   0.2618   0.9569   0
1235.441   0.6513   0.2686   0.9571   0
1235.500   0.4211   0.2516   0.9574   0
1235.560   0.4066   0.2512   0.9577   0
1235.620   0.3876   0.2497   0.9579   0
1235.680   0.6148   0.2693   0.9582   0
1235.740   0.5898   0.2668   0.9584   0
1235.800   0.5133   0.2614   0.9587   0
1235.859   0.3431   0.2463   0.9589   0
1235.919   0.2197   0.2352   0.9592   0
1235.979   0.5860   0.2656   0.9594   0
1236.039   0.3346   0.2445   0.9596   0
1236.099   0.3173   0.2446   0.9599   0
1236.159   0.3706   0.2486   0.9601   0
1236.218   0.5460   0.2433   0.9604   0
1236.278   0.5596   0.2636   0.9606   0
1236.338   0.3172   0.2437   0.9608   0
1236.398   0.4566   0.2544   0.9611   0
1236.458   0.4725   0.2552   0.9613   0
1236.517   0.3488   0.2443   0.9615   0
1236.577   0.4190   0.2490   0.9617   0
1236.637   0.4894   0.2568   0.9619   0
1236.697   0.3725   0.2461   0.9622   0
1236.757   0.3945   0.2472   0.9624   0
1236.817   0.1624   0.2277   0.9626   0
1236.876   0.5111   0.2573   0.9628   0
1236.936   0.3722   0.2457   0.9630   0
1236.996   0.2548   0.2358   0.9632   0
1237.056   0.4414   0.2524   0.9634   0
1237.116   0.2782   0.2382   0.9637   0
1237.175   0.3951   0.2482   0.9639   0
1237.235   0.3947   0.2467   0.9641   0
1237.295   0.3957   0.2483   0.9643   0
1237.355   0.4652   0.2540   0.9645   0
1237.415   0.6273   0.2665   0.9647   0
1237.475   0.4404   0.2515   0.9649   0
1237.534   0.3699   0.2460   0.9651   0
1237.594   0.3234   0.2414   0.9652   0
1237.654   0.2998   0.2399   0.9654   0
1237.714   0.6030   0.2637   0.9656   0
1237.774   0.3477   0.2431   0.9658   0
1237.833   0.3945   0.2478   0.9660   0
1237.893   0.3947   0.2474   0.9662   0
1237.953   0.2789   0.2377   0.9664   0
1238.013   0.3712   0.2448   0.9666   0
1238.073   0.4405   0.2505   0.9667   0
1238.133   0.3707   0.2455   0.9669   0
1238.192   0.5552   0.2606   0.9671   0
1238.252   0.2294   0.2331   0.9673   0
1238.312   0.2752   0.2364   0.9674   0
1238.372   0.4849   0.2553   0.9676   0
1238.432   0.4162   0.2493   0.9678   0
1238.491   0.2767   0.2373   0.9680   0
1238.551   0.4847   0.2556   0.9681   0
1238.611   0.2521   0.2346   0.9683   0
1238.671   0.3448   0.2427   0.9685   0
1238.731   0.3910   0.2470   0.9686   0
1238.791   0.3226   0.2410   0.9688   0
1238.850   0.4578   0.2539   0.9690   0
1238.910   0.5895   0.2659   0.9691   0
1238.970   0.2674   0.2387   0.9693   0
1239.030   0.4563   0.2537   0.9694   0
1239.090   0.3128   0.2423   0.9696   0
1239.150   0.4777   0.2560   0.9698   0
1239.209   0.3297   0.2426   0.9699   0
1239.269   0.3470   0.2425   0.9701   0
1239.329   0.2999   0.2393   0.9702   0
1239.389   0.2297   0.2324   0.9704   0
1239.449   0.6015   0.2635   0.9705   0
1239.508   0.5099   0.2559   0.9707   0
1239.568   0.5095   0.2558   0.9708   0
1239.628   0.6494   0.2665   0.9710   0
1239.688   0.4633   0.2523   0.9711   0
1239.748   0.3712   0.2445   0.9713   0
1239.807   0.4175   0.2478   0.9714   0
1239.867   0.4159   0.2479   0.9715   0
1239.927   0.4149   0.2481   0.9717   0
1239.987   0.5079   0.2563   0.9718   0
1240.047   0.3926   0.2458   0.9720   0
1240.107   0.8576   0.2808   0.9721   0
1240.167   0.3939   0.2465   0.9722   0
1240.226   0.4866   0.2539   0.9724   0
1240.286   0.6494   0.2665   0.9725   0
1240.346   0.4859   0.2541   0.9727   0
1240.406   0.4859   0.2534   0.9728   0
1240.466   0.4158   0.2474   0.9729   0
1240.525   0.4387   0.2502   0.9731   0
1240.585   0.3928   0.2456   0.9732   0
1240.645   0.4388   0.2491   0.9733   0
1240.705   0.3453   0.2415   0.9734   0
1240.765   0.2990   0.2379   0.9736   0
1240.824   0.3455   0.2422   0.9737   0
1240.884   0.2764   0.2362   0.9738   0
1240.944   0.3471   0.2418   0.9739   0
1241.004   0.3001   0.2385   0.9741   0
1241.064   0.2423   0.2345   0.9742   0
1241.124   0.3193   0.2415   0.9743   0
1241.183   0.3906   0.2489   0.9744   0
1241.243   0.3594   0.2447   0.9746   0
1241.303   0.3634   0.2447   0.9747   0
1241.363   0.2877   0.2380   0.9748   0
1241.423   0.4244   0.2492   0.9749   0
1241.483   0.4392   0.2498   0.9750   0
1241.542   0.6705   0.2681   0.9752   0
1241.602   0.4616   0.2506   0.9753   0
1241.662   0.6469   0.2654   0.9754   0
1241.722   0.7641   0.2740   0.9755   0
1241.782   0.5081   0.2551   0.9756   0
1241.841   0.7173   0.2701   0.9757   0
1241.901   0.7163   0.2704   0.9758   0
1241.961   0.6009   0.2613   0.9760   0
1242.021   0.8778   0.2808   0.9761   0
1242.081   0.6917   0.2680   0.9762   0
1242.141   0.7380   0.2716   0.9763   0
1242.200   0.8541   0.2797   0.9764   0
1242.260   0.6463   0.2642   0.9765   0
1242.320   0.7393   0.2706   0.9766   0
1242.380   0.6938   0.2690   0.9767   0
1242.440   0.6935   0.2684   0.9768   0
1242.500   0.5311   0.2561   0.9769   0
1242.559   0.7871   0.2747   0.9770   0
1242.619   0.6250   0.2629   0.9771   0
1242.679   0.6928   0.2683   0.9772   0
1242.739   0.5999   0.2618   0.9773   0
1242.799   0.6687   0.2660   0.9774   0
1242.858   0.6706   0.2653   0.9775   0
1242.918   0.8560   0.2796   0.9776   0
1242.978   0.7864   0.2740   0.9777   0
1243.038   0.6938   0.2684   0.9778   0
1243.098   0.6704   0.2657   0.9779   0
1243.157   0.7379   0.2711   0.9780   0
1243.217   0.8067   0.2757   0.9781   0
1243.277   0.7370   0.2704   0.9782   0
1243.337   0.5762   0.2593   0.9783   0
1243.397   0.8287   0.2772   0.9784   0
1243.457   0.8289   0.2769   0.9785   0
1243.516   0.8768   0.2805   0.9786   0
1243.576   0.9708   0.2871   0.9787   0
1243.636   0.6471   0.2635   0.9788   0
1243.696   0.9706   0.2869   0.9789   0
1243.756   1.0623   0.2922   0.9790   0
1243.816   0.7163   0.2686   0.9791   0
1243.875   0.9244   0.2821   0.9791   0
1243.935   0.9453   0.2834   0.9792   0
1243.995   1.0779   0.2945   0.9793   0
1244.055   1.0671   0.2964   0.9794   0
1244.115   1.0785   0.2963   0.9795   0
1244.174   0.9955   0.2908   0.9796   0
1244.234   0.9132   0.2843   0.9797   0
1244.294   1.1093   0.2983   0.9798   0
1244.354   0.7597   0.2742   0.9798   0
1244.414   1.1055   0.2980   0.9799   0
1244.474   1.0165   0.2919   0.9800   0
1244.533   1.0958   0.2970   0.9801   0
1244.593   1.1391   0.2994   0.9802   0
1244.653   0.9884   0.2900   0.9803   0
1244.713   0.6808   0.2690   0.9803   0
1244.773   0.7493   0.2727   0.9804   0
1244.832   0.9947   0.2889   0.9805   0
1244.892   0.7805   0.2736   0.9806   0
1244.952   0.7588   0.2712   0.9807   0
1245.012   1.0103   0.2883   0.9807   0
1245.072   0.8730   0.2795   0.9808   0
1245.132   1.2176   0.3020   0.9809   0
1245.191   0.8501   0.2781   0.9810   0
1245.251   0.7116   0.2677   0.9811   0
1245.311   1.1025   0.2939   0.9811   0
1245.371   0.7346   0.2702   0.9812   0
1245.431   1.2859   0.3047   0.9813   0
1245.490   0.8732   0.2790   0.9814   0
1245.550   1.1719   0.2974   0.9814   0
1245.610   1.0766   0.2924   0.9815   0
1245.670   1.4894   0.3150   0.9816   0
1245.730   0.9843   0.2849   0.9817   0
1245.790   1.3524   0.3085   0.9817   0
1245.849   1.0998   0.2930   0.9818   0
1245.909   1.3060   0.3070   0.9819   0
1245.969   1.0992   0.2933   0.9820   0
1246.029   1.1894   0.2982   0.9820   0
1246.089   1.3505   0.3073   0.9821   0
1246.148   1.3051   0.3057   0.9822   0
1246.208   1.2810   0.3043   0.9822   0
1246.268   1.3258   0.3061   0.9823   0
1246.328   1.2113   0.3000   0.9824   0
1246.388   1.2330   0.3012   0.9825   0
1246.448   1.1419   0.2956   0.9825   0
1246.507   1.4846   0.3159   0.9826   0
1246.567   1.2792   0.3032   0.9827   0
1246.627   1.1176   0.2929   0.9827   0
1246.687   1.5539   0.3195   0.9828   0
1246.747   0.9577   0.2825   0.9829   0
1246.807   1.2333   0.3008   0.9829   0
1246.866   1.1175   0.2945   0.9830   0
1246.926   1.0944   0.2917   0.9831   0
1246.986   1.2558   0.3020   0.9831   0
1247.046   1.1864   0.2967   0.9832   0
1247.106   1.1173   0.2922   0.9833   0
1247.165   1.3148   0.3059   0.9833   0
1247.225   1.2173   0.3029   0.9834   0
1247.285   1.3279   0.3108   0.9834   0
1247.345   1.6324   0.3285   0.9835   0
1247.405   1.1236   0.2966   0.9836   0
1247.464   1.3545   0.3125   0.9836   0
1247.524   0.9167   0.2848   0.9837   0
1247.584   1.1456   0.2987   0.9838   0
1247.644   0.9845   0.2851   0.9838   0
1247.704   1.1407   0.2942   0.9839   0
1247.764   1.1169   0.2934   0.9839   0
1247.823   0.9344   0.2817   0.9840   0
1247.883   0.7295   0.2676   0.9841   0
1247.943   0.9122   0.2804   0.9841   0
1248.003   0.9347   0.2815   0.9842   0
1248.063   1.0478   0.2889   0.9842   0
1248.123   1.0023   0.2858   0.9843   0
1248.182   1.0024   0.2853   0.9844   0
1248.242   0.8873   0.2780   0.9844   0
1248.302   1.2050   0.2981   0.9845   0
1248.362   0.8632   0.2771   0.9845   0
1248.422   0.9770   0.2825   0.9846   0
1248.481   1.0237   0.2872   0.9846   0
1248.541   0.6584   0.2617   0.9847   0
1248.601   1.0917   0.2893   0.9848   0
1248.661   0.9331   0.2810   0.9848   0
1248.721   0.6370   0.2594   0.9849   0
1248.781   0.7501   0.2685   0.9849   0
1248.840   1.2500   0.3005   0.9850   0
1248.900   0.4999   0.2494   0.9850   0
1248.960   1.0010   0.2849   0.9851   0
1249.020   0.6587   0.2618   0.9851   0
1249.080   0.6577   0.2608   0.9852   0
1249.140   0.7945   0.2699   0.9853   0
1249.199   0.5895   0.2565   0.9853   0
1249.259   0.7715   0.2685   0.9854   0
1249.319   0.7260   0.2659   0.9854   0
1249.379   0.7559   0.2678   0.9855   0
1249.439   0.6876   0.2658   0.9855   0
1249.498   0.7917   0.2745   0.9856   0
1249.558   0.7406   0.2695   0.9856   0
1249.618   0.5946   0.2592   0.9857   0
1249.678   0.6239   0.2622   0.9857   0
1249.738   0.4788   0.2496   0.9858   0
1249.797   0.6133   0.2597   0.9858   0
1249.857   0.6602   0.2606   0.9859   0
1249.917   0.8375   0.2725   0.9859   0
1249.977   0.4526   0.2445   0.9860   0
1250.037   0.7922   0.2694   0.9860   0
1250.097   0.6106   0.2570   0.9861   0
1250.156   0.7685   0.2680   0.9861   0
1250.216   0.6321   0.2580   0.9862   0
1250.276   0.4045   0.2397   0.9862   0
1250.336   0.7668   0.2683   0.9863   0
1250.396   0.6317   0.2585   0.9863   0
1250.456   0.5400   0.2510   0.9864   0
1250.515   0.3585   0.2367   0.9864   0
1250.575   0.6069   0.2564   0.9865   0
1250.635   0.4052   0.2401   0.9865   0
1250.695   0.6985   0.2614   0.9865   0
1250.755   0.7442   0.2665   0.9866   0
1250.814   0.8121   0.2716   0.9866   0
1250.874   0.9477   0.2798   0.9867   0
1250.934   0.7445   0.2657   0.9867   0
1250.994   0.9728   0.2816   0.9868   0
1251.054   1.3336   0.3036   0.9868   0
1251.114   1.4269   0.3087   0.9869   0
1251.173   1.0863   0.2891   0.9869   0
1251.233   0.8362   0.2730   0.9870   0
1251.293   1.0627   0.2873   0.9870   0
1251.353   1.0385   0.2848   0.9870   0
1251.413   1.1732   0.2942   0.9871   0
1251.472   1.0846   0.2885   0.9871   0
1251.532   1.1956   0.2943   0.9872   0
1251.592   1.0834   0.2878   0.9872   0
1251.652   1.0835   0.2887   0.9873   0
1251.712   0.9932   0.2814   0.9873   0
1251.772   0.7670   0.2668   0.9873   0
1251.831   0.9255   0.2779   0.9874   0
1251.891   0.9250   0.2783   0.9874   0
1251.951   1.1044   0.2883   0.9875   0
1252.011   0.9229   0.2768   0.9875   0
1252.071   0.9001   0.2751   0.9876   0
1252.130   0.8326   0.2707   0.9876   0
1252.190   0.9010   0.2761   0.9876   0
1252.250   0.5394   0.2496   0.9877   0
1252.310   0.5617   0.2508   0.9877   0
1252.370   0.6449   0.2583   0.9878   0
1252.430   0.6821   0.2626   0.9878   0
1252.489   0.7889   0.2718   0.9878   0
1252.549   0.6882   0.2628   0.9879   0
1252.609   0.5423   0.2519   0.9879   0
1252.669   0.5935   0.2558   0.9880   0
1252.729   0.3069   0.2326   0.9880   0
1252.788   0.6073   0.2567   0.9880   0
1252.848   0.7030   0.2645   0.9881   0
1252.908   0.7074   0.2650   0.9881   0
1252.968   0.7327   0.2666   0.9882   0
1253.028   0.9454   0.2818   0.9882   0
1253.088   0.7753   0.2693   0.9882   0
1253.147   0.9775   0.2851   0.9883   0
1253.207   0.6113   0.2567   0.9883   0
1253.267   0.7312   0.2647   0.9883   0
1253.327   1.0816   0.2868   0.9884   0
1253.387   0.7883   0.2676   0.9884   0
1253.447   0.7442   0.2642   0.9885   0
1253.506   0.7668   0.2653   0.9885   0
1253.566   0.6084   0.2547   0.9885   0
1253.626   0.5851   0.2534   0.9886   0
1253.686   0.4053   0.2381   0.9886   0
1253.746   0.2017   0.2207   0.9886   0
1253.805   0.3370   0.2332   0.9887   0
1253.865   0.5855   0.2527   0.9887   0
1253.925   0.8111   0.2691   0.9887   0
1253.985   0.8566   0.2719   0.9888   0
1254.045   0.5632   0.2509   0.9888   0
1254.104   0.6763   0.2589   0.9888   0
1254.164   0.7431   0.2629   0.9889   0
1254.224   1.1272   0.2906   0.9889   0
1254.284   0.8341   0.2700   0.9890   0
1254.344   0.9918   0.2798   0.9890   0
1254.404   0.8790   0.2735   0.9890   0
1254.464   0.7671   0.2661   0.9891   0
1254.523   0.6313   0.2552   0.9891   0
1254.583   0.6084   0.2551   0.9891   0
1254.643   0.5863   0.2525   0.9892   0
1254.703   0.8114   0.2687   0.9892   0
1254.763   0.8111   0.2489   0.9892   0
1254.822   0.6528   0.2573   0.9893   0
1254.882   0.7889   0.2665   0.9893   0
1254.942   0.8339   0.2699   0.9893   0
1255.002   0.6985   0.2608   0.9894   0
1255.062   0.7881   0.2664   0.9894   0
1255.121   0.7436   0.2644   0.9894   0
1255.181   0.9007   0.2752   0.9895   0
1255.241   0.6975   0.2601   0.9895   0
1255.301   0.8786   0.2734   0.9895   0
1255.361   0.9692   0.2788   0.9896   0
1255.421   0.7431   0.2633   0.9896   0
1255.480   0.5614   0.2499   0.9896   0
1255.540   0.5647   0.2508   0.9896   0
1255.600   0.7722   0.2664   0.9897   0
1255.660   0.6841   0.2625   0.9897   0
1255.720   0.7108   0.2648   0.9897   0
1255.780   0.4726   0.2449   0.9898   0
1255.839   0.2825   0.2288   0.9898   0
1255.899   0.4521   0.2449   0.9898   0
1255.959   0.4021   0.2399   0.9899   0
1256.019   0.5801   0.2533   0.9899   0
1256.079   0.4752   0.2436   0.9899   0
1256.138   0.3394   0.2318   0.9900   0
1256.198   0.4540   0.2422   0.9900   0
1256.258   0.5897   0.2525   0.9900   0
1256.318   0.7939   0.2676   0.9900   0
1256.378   0.5667   0.2516   0.9901   0
1256.438   0.7028   0.2592   0.9901   0
1256.497   0.7038   0.2617   0.9901   0
1256.557   0.4993   0.2457   0.9902   0
1256.617   0.7717   0.2658   0.9902   0
1256.677   0.6815   0.2594   0.9902   0
1256.737   0.7484   0.2626   0.9902   0
1256.796   0.5904   0.2529   0.9903   0
1256.856   0.5669   0.2512   0.9903   0
1256.916   0.6808   0.2595   0.9903   0
1256.976   0.5897   0.2527   0.9904   1
1257.036   0.9077   0.2757   0.9904   1
1257.096   0.7941   0.2666   0.9904   1
1257.155   0.5900   0.2527   0.9904   1
1257.215   0.4759   0.2436   0.9905   1
1257.275   0.8628   0.2721   0.9905   1
1257.335   0.5903   0.2529   0.9905   1
1257.395   0.7727   0.2652   0.9906   1
1257.454   0.9300   0.2768   0.9906   1
1257.514   1.0450   0.2843   0.9906   1
1257.574   0.8404   0.2724   0.9906   1
1257.634   0.7265   0.2630   0.9907   1
1257.694   0.7035   0.2608   0.9907   1
1257.754   0.5732   0.2508   0.9907   1
1257.813   0.9465   0.2812   0.9907   1
1257.873   0.7879   0.2698   0.9908   1
1257.933   1.1007   0.2919   0.9908   1
1257.993   0.7412   0.2668   0.9908   1
1258.053   0.9282   0.2791   0.9908   1
1258.112   0.9148   0.2784   0.9909   1
1258.172   0.7131   0.2654   0.9909   1
1258.232   0.8792   0.2746   0.9909   1
1258.292   0.8407   0.2702   0.9910   1
1258.352   0.7517   0.2643   0.9910   1
1258.412   0.6826   0.2578   0.9910   1
1258.471   1.0459   0.2853   0.9910   1
1258.531   0.8403   0.2706   0.9911   1
1258.591   0.8192   0.2690   0.9911   1
1258.651   0.7273   0.2630   0.9911   1
1258.711   0.8866   0.2738   0.9911   1
1258.771   0.8184   0.2691   0.9912   1
1258.830   0.6827   0.2599   0.9912   1
1258.890   0.8425   0.2708   0.9912   1
1258.950   0.7052   0.2616   0.9912   1
1259.010   0.8657   0.2716   0.9913   1
1259.070   0.7970   0.2683   0.9913   1
1259.129   0.6837   0.2600   0.9913   1
1259.189   0.9128   0.2753   0.9913   1
1259.249   0.7309   0.2639   0.9913   1
1259.309   0.5931   0.2530   0.9914   1
1259.369   0.5018   0.2450   0.9914   1
1259.428   0.4789   0.2431   0.9914   1
1259.488   0.2050   0.2200   0.9914   0
1259.548   0.4340   0.2403   0.9915   0
1259.608   0.4333   0.2404   0.9915   0
1259.668   0.6599   0.2580   0.9915   0
1259.728   0.6389   0.2569   0.9915   0
1259.787   0.7974   0.2687   0.9916   0
1259.847   0.4791   0.2445   0.9916   0
1259.907   0.5235   0.2479   0.9916   0
1259.967   0.3874   0.2360   0.9916   0
1260.027   0.2955   0.2276   0.9917   0
1260.087   0.2046   0.2196   0.9917   0
1260.146   0.1359   0.2133   0.9917   0
1260.206   0.0671   0.2066   0.9917   0
1260.266   0.0211   0.2017   0.9917   0
1260.326   0.0904   0.2090   0.9918   0
1260.386   0.1132   0.2107   0.9918   0
1260.445   -0.0007   0.1993   0.9918   0
1260.505   0.0674   0.2066   0.9918   0
1260.565   0.0217   0.2017   0.9919   0
1260.625   -0.0012   0.1992   0.9919   0
1260.685   0.0223   0.2017   0.9919   0
1260.745   0.1158   0.2118   0.9919   0
1260.804   0.2142   0.2223   0.9919   0
1260.864   0.4808   0.2457   0.9920   0
1260.924   0.3333   0.2338   0.9920   0
1260.984   0.7435   0.2674   0.9920   0
1261.044   0.7175   0.2637   0.9920   0
1261.104   0.7768   0.2694   0.9920   0
1261.163   0.6663   0.2612   0.9921   0
1261.223   0.4862   0.2456   0.9921   0
1261.283   0.4412   0.2409   0.9921   0
1261.343   0.4549   0.2448   0.9921   0
1261.403   0.5061   0.2493   0.9922   0
1261.462   0.4096   0.2404   0.9922   0
1261.522   0.2650   0.2281   0.9922   0
1261.582   0.2633   0.2270   0.9922   0
1261.642   0.3557   0.2353   0.9922   0
1261.702   0.5154   0.2480   0.9923   0
1261.761   0.4098   0.2375   0.9923   0
1261.821   0.6171   0.2552   0.9923   0
1261.881   0.2051   0.2202   0.9923   0
1261.941   0.3420   0.2326   0.9923   0
1262.001   0.7761   0.2667   0.9924   0
1262.061   0.5022   0.2461   0.9924   0
1262.120   0.3880   0.2366   0.9924   0
1262.180   0.2276   0.2227   0.9924   0
1262.240   0.0906   0.2090   0.9924   0
1262.300   0.0224   0.2018   0.9925   0
1262.360   0.0223   0.2017   0.9925   0
1262.420   0.0223   0.2017   0.9925   0
1262.479   0.0451   0.2042   0.9925   0
1262.539   -0.0006   0.1993   0.9925   0
1262.599   -0.0005   0.1993   0.9926   0
1262.659   0.0000   0.1993   0.9926   0
1262.719   -0.0005   0.1993   0.9926   0
1262.778   -0.0006   0.1993   0.9926   0
1262.838   -0.0006   0.1993   0.9926   0
1262.898   -0.0010   0.1993   0.9926   0
1262.958   -0.0012   0.1993   0.9927   0
1263.018   0.0216   0.2018   0.9927   0
1263.078   0.0898   0.2090   0.9927   0
1263.137   0.1804   0.2173   0.9927   0
1263.197   0.4096   0.2372   0.9927   0
1263.257   0.6375   0.2568   0.9928   0
1263.317   0.6827   0.2592   0.9928   0
1263.377   0.7748   0.2671   0.9928   0
1263.436   0.6821   0.2590   0.9928   0
1263.496   0.7508   0.2652   0.9928   0
1263.556   0.9100   0.2749   0.9928   0
1263.616   0.6816   0.2594   0.9929   0
1263.676   0.6816   0.2601   0.9929   0
1263.736   0.8885   0.2745   0.9929   0
1263.795   0.9105   0.2754   0.9929   0
1263.855   0.6614   0.2563   0.9929   0
1263.915   0.7979   0.2675   0.9930   0
1263.975   0.8883   0.2732   0.9930   0
1264.035   0.9449   0.2792   0.9930   1
1264.094   0.9350   0.2800   0.9930   1
1264.154   1.1528   0.2955   0.9930   1
1264.214   0.7946   0.2718   0.9930   1
1264.274   0.6709   0.2613   0.9931   1
1264.334   0.5513   0.2523   0.9931   1
1264.394   0.8321   0.2730   0.9931   1
1264.453   0.9749   0.2836   0.9931   1
1264.513   0.6614   0.2588   0.9931   1
1264.573   0.8653   0.2729   0.9931   1
1264.633   0.7523   0.2631   0.9932   1
1264.693   1.1854   0.2934   0.9932   1
1264.752   0.7058   0.2615   0.9932   1
1264.812   0.8186   0.2695   0.9932   1
1264.872   0.8416   0.2700   0.9932   1
1264.932   0.8868   0.2729   0.9932   1
1264.992   0.8411   0.2717   0.9933   1
1265.052   0.9085   0.2753   0.9933   1
1265.111   0.9549   0.2787   0.9933   1
1265.171   0.5207   0.2467   0.9933   1
1265.231   0.9074   0.2750   0.9933   1
1265.291   0.9764   0.2795   0.9933   1
1265.351   0.7942   0.2685   0.9934   1
1265.411   0.9985   0.2808   0.9934   1
1265.470   0.8847   0.2736   0.9934   1
1265.530   0.9750   0.2782   0.9934   1
1265.590   0.8393   0.2712   0.9934   1
1265.650   0.7017   0.2606   0.9934   1
1265.710   0.6789   0.2599   0.9935   1
1265.769   1.0197   0.2824   0.9935   1
1265.829   0.7699   0.2660   0.9935   1
1265.889   0.8842   0.2745   0.9935   1
1265.949   0.8154   0.2681   0.9935   1
1266.009   1.0217   0.2835   0.9935   1
1266.068   0.7045   0.2622   0.9935   1
1266.128   0.7268   0.2636   0.9936   1
1266.188   0.7288   0.2639   0.9936   1
1266.248   0.9389   0.2779   0.9936   1
1266.308   1.1893   0.2963   0.9936   1
1266.368   0.5752   0.2541   0.9936   1
1266.427   0.8018   0.2732   0.9936   1
1266.487   0.9892   0.2864   0.9937   1
1266.547   0.8168   0.2766   0.9937   1
1266.607   0.9800   0.2879   0.9937   1
1266.667   0.8708   0.2785   0.9937   1
1266.727   0.8003   0.2697   0.9937   1
1266.786   0.8202   0.2685   0.9937   1
1266.846   0.9756   0.2788   0.9937   1
1266.906   0.6563   0.2579   0.9938   1
1266.966   0.6341   0.2557   0.9938   1
1267.026   0.9053   0.2746   0.9938   1
1267.085   0.9974   0.2814   0.9938   1
1267.145   0.7702   0.2669   0.9938   1
1267.205   0.6109   0.2544   0.9938   1
1267.265   0.9074   0.2750   0.9938   1
1267.325   1.1342   0.2889   0.9939   1
1267.385   0.7691   0.2659   0.9939   1
1267.444   0.5659   0.2519   0.9939   1
1267.504   0.8600   0.2710   0.9939   1
1267.564   0.7467   0.2648   0.9939   1
1267.624   0.7005   0.2613   0.9939   1
1267.684   0.9722   0.2809   0.9939   1
1267.744   0.8807   0.2748   0.9940   1
1267.803   1.1057   0.2883   0.9940   1
1267.863   1.0604   0.2850   0.9940   1
1267.923   0.7668   0.2668   0.9940   1
1267.983   0.9471   0.2768   0.9940   1
1268.043   0.6075   0.2548   0.9940   1
1268.102   0.9244   0.2747   0.9940   1
1268.162   0.8549   0.2720   0.9941   1
1268.222   0.9466   0.2786   0.9941   1
1268.282   0.8781   0.2733   0.9941   1
1268.342   0.5627   0.2504   0.9941   1
1268.401   0.8557   0.2714   0.9941   1
1268.461   0.9472   0.2773   0.9941   1
1268.521   1.0817   0.2868   0.9941   1
1268.581   0.8989   0.2747   0.9942   1
1268.641   0.8547   0.2722   0.9942   1
1268.701   0.9308   0.2764   0.9942   1
1268.760   1.2016   0.2953   0.9942   1
1268.820   0.8880   0.2767   0.9942   1
1268.880   0.8382   0.2770   0.9942   1
1268.940   0.7754   0.2739   0.9942   1
1269.000   0.8387   0.2779   0.9942   1
1269.060   0.5069   0.2504   0.9943   1
1269.119   0.9895   0.2841   0.9943   1
1269.179   0.8088   0.2711   0.9943   1
1269.239   0.8437   0.2741   0.9943   1
1269.299   0.8477   0.2766   0.9943   1
1269.359   1.0561   0.2926   0.9943   1
1269.418   0.9623   0.2870   0.9943   1
1269.478   0.7377   0.2687   0.9943   1
1269.538   1.1143   0.2941   0.9944   1
1269.598   0.9402   0.2796   0.9944   1
1269.658   0.9325   0.2796   0.9944   1
1269.718   0.6067   0.2567   0.9944   1
1269.777   0.8364   0.2731   0.9944   1
1269.837   0.8441   0.2735   0.9944   1
1269.897   0.9430   0.2797   0.9944   1
1269.957   0.8057   0.2705   0.9944   1
1270.017   0.8431   0.2743   0.9945   1
1270.076   0.8600   0.2733   0.9945   1
1270.136   0.9197   0.2772   0.9945   1
1270.196   1.1890   0.2932   0.9945   1
1270.256   1.0088   0.2818   0.9945   1
1270.316   0.8064   0.2689   0.9945   1
1270.376   0.8290   0.2703   0.9945   1
1270.435   0.7392   0.2643   0.9945   1
1270.495   1.2546   0.2969   0.9946   1
1270.555   0.7154   0.2636   0.9946   1
1270.615   0.7828   0.2660   0.9946   1
1270.675   0.8058   0.2680   0.9946   1
1270.734   0.8732   0.2721   0.9946   1
1270.794   1.0081   0.2829   0.9946   1
1270.854   0.7385   0.2644   0.9946   1
1270.914   0.7163   0.2616   0.9946   1
1270.974   0.6473   0.2578   0.9947   1
1271.034   0.7605   0.2665   0.9947   1
1271.093   0.7205   0.3050   0.9947   1
1271.153   0.9629   0.3236   0.9947   1
1271.213   0.7504   0.3051   0.9947   1
1271.273   0.7819   0.3101   0.9947   1
1271.333   0.5706   0.2915   0.9947   1
1271.392   0.6343   0.2974   0.9947   1
1271.452   0.7431   0.3084   0.9947   1
1271.512   0.8414   0.3202   0.9948   1
1271.572   0.6925   0.3095   0.9948   1
1271.632   0.6270   0.3089   0.9948   1
1271.692   0.5748   0.3026   0.9948   1
1271.751   0.7730   0.3220   0.9948   1
1271.811   0.5672   0.2981   0.9948   1
1271.871   0.7691   0.3130   0.9948   1
1271.931   0.7823   0.3114   0.9948   1
1271.991   0.7010   0.3043   0.9948   1
1272.051   0.6935   0.3030   0.9949   1
1272.110   0.6627   0.2986   0.9949   1
1272.170   0.9933   0.3245   0.9949   1
1272.230   0.8408   0.3136   0.9949   1
1272.290   1.0573   0.3302   0.9949   1
1272.350   1.0191   0.3265   0.9949   1
1272.409   1.1396   0.3352   0.9949   1
1272.469   0.8628   0.3175   0.9949   1
1272.529   1.1975   0.3459   0.9949   1
1272.589   0.8481   0.3190   0.9950   1
1272.649   0.8862   0.3220   0.9950   1
1272.708   1.0257   0.3333   0.9950   1
1272.768   0.7628   0.3119   0.9950   1
1272.828   0.8752   0.3204   0.9950   1
1272.888   0.6350   0.2975   0.9950   1
1272.948   0.5361   0.2887   0.9950   1
1273.008   1.0740   0.3305   0.9950   1
1273.068   1.2589   0.3433   0.9950   1
1273.127   0.8068   0.3114   0.9950   1
1273.187   0.6566   0.2978   0.9951   1
1273.247   0.7137   0.3043   0.9951   1
1273.307   0.8173   0.2893   0.9951   1
1273.367   0.8923   0.3182   0.9951   1
1273.426   0.6241   0.2955   0.9951   1
1273.486   0.7727   0.3085   0.9951   1
1273.546   1.0119   0.3265   0.9951   1
1273.606   1.1922   0.3392   0.9951   1
1273.666   1.1394   0.3352   0.9951   1
1273.725   1.0786   0.3347   0.9952   1
1273.785   0.9232   0.3239   0.9952   1
1273.845   0.8553   0.3822   0.9952   1
1273.905   0.7222   0.3939   0.9952   1
1273.965   1.2089   0.4425   0.9952   1
1274.025   0.9411   0.4081   0.9952   1
1274.084   0.3923   0.3432   0.9952   1
1274.144   0.8522   0.3899   0.9952   1
1274.204   1.1562   0.4177   0.9952   1
1274.264   0.9525   0.3951   0.9952   1
1274.324   0.6415   0.3668   0.9952   1
1274.384   0.7860   0.3803   0.9953   1
1274.443   0.9575   0.4024   0.9953   1
1274.503   0.7059   0.3816   0.9953   1
1274.563   0.7096   0.3838   0.9953   1
1274.623   0.6443   0.3740   0.9953   1
1274.683   0.5092   0.3587   0.9953   1
1274.742   0.8470   0.3930   0.9953   1
1274.802   0.6278   0.3672   0.9953   1
1274.862   0.7820   0.3846   0.9953   1
1274.922   0.8949   0.4000   0.9953   1
1274.982   0.8831   0.3958   0.9954   1
1275.042   1.0009   0.4053   0.9954   1
1275.101   0.4496   0.3426   0.9954   1
1275.161   0.7556   0.3746   0.9954   1
1275.221   0.7111   0.3731   0.9954   1
1275.281   0.7996   0.3806   0.9954   1
1275.341   0.6677   0.3677   0.9954   1
1275.400   0.9339   0.3935   0.9954   1
1275.460   0.8417   0.3825   0.9954   1
1275.520   0.7990   0.3784   0.9954   1
1275.580   1.2462   0.4161   0.9954   1
1275.640   0.6217   0.3631   0.9955   1
1275.700   0.6675   0.3672   0.9955   1
1275.759   0.5785   0.3591   0.9955   1
1275.819   0.7557   0.3757   0.9955   1
1275.879   1.0689   0.4046   0.9955   1
1275.939   0.7570   0.3742   0.9955   1
1275.999   0.9770   0.3958   0.9955   1
1276.058   1.3393   0.5461   0.9955   1
1276.118   0.8032   0.5390   0.9955   1
1276.178   0.7142   0.5249   0.9955   1
1276.238   1.3459   0.6020   0.9955   1
1276.298   0.9820   0.5597   0.9956   1
1276.358   0.9795   0.5613   0.9956   1
1276.417   0.8933   0.5507   0.9956   1
1276.477   1.3418   0.6029   0.9956   1
1276.537   0.8024   0.5353   0.9956   1
1276.597   0.7172   0.5285   0.9956   1
1276.657   1.3895   0.6185   0.9956   1
1276.716   0.5071   0.5086   0.9956   1
1276.776   0.8006   0.5685   0.9956   1
1276.836   0.6847   0.5692   0.9956   1
1276.896   1.0347   0.6434   0.9956   1
1276.956   0.4021   0.5088   0.9957   1
1277.016   0.5025   0.5221   0.9957   1
1277.075   1.3028   0.6288   0.9957   1
1277.135   0.7629   0.5417   0.9957   1
1277.195   0.6451   0.5221   0.9957   1
1277.255   0.6407   0.5191   0.9957   1
1277.315   0.4461   0.4902   0.9957   1
1277.375   0.8115   0.5430   0.9957   1
1277.434   0.8075   0.5446   0.9957   1
1277.494   0.8044   0.5389   0.9957   1
1277.554   0.6271   0.5193   0.9957   1
1277.614   1.3310   0.6165   0.9957   1
1277.674   0.9347   0.5774   0.9958   1
1277.733   0.7182   0.5432   0.9958   1
1277.793   0.8674   0.5684   0.9958   1
1277.853   0.8809   0.5745   0.9958   1
1277.913   0.6779   0.5408   0.9958   1
1277.973   0.8577   0.5746   0.9958   1
1278.032   1.0107   0.5808   0.9958   1
1278.092   0.7216   0.5311   0.9958   1
1278.152   0.8996   0.5550   0.9958   1
1278.212   0.4955   0.2842   0.9958   1
1278.272   0.3612   0.2659   0.9958   1
1278.332   0.6316   0.3007   0.9958   1
1278.391   0.6336   0.3007   0.9958   1
1278.451   0.2261   0.2470   0.9959   1
1278.511   0.3155   0.2623   0.9959   1
1278.571   0.2705   0.2550   0.9959   1
1278.631   0.3624   0.2693   0.9959   1
1278.691   0.4531   0.2816   0.9959   1
1278.750   0.4995   0.2837   0.9959   1
1278.810   0.5012   0.2858   0.9959   1
1278.870   0.8627   0.3292   0.9959   1
1278.930   0.4100   0.2769   0.9959   1
1278.990   0.3648   0.2687   0.9959   1
1279.049   0.0913   0.1207   0.9959   1
1279.109   0.0000   0.0000   0.9959   1
1279.169   0.0000   0.0000   0.9960   1
1279.229   0.0000   0.0000   0.9960   1
1279.289   0.0000   0.0000   0.9960   1
1279.349   0.0000   0.0000   0.9960   1
1279.408   0.0000   0.0000   0.9960   1
1279.468   0.0000   0.0000   0.9960   1
1279.528   0.0000   0.0000   0.9960   1
1279.588   0.0000   0.0000   0.9960   1
1279.648   0.0000   0.0000   0.9960   1
1279.708   0.0000   0.0000   0.9960   1
1279.767   0.0000   0.0000   0.9960   1
1279.827   0.0000   0.0000   0.9960   1
1279.887   0.0000   0.0000   0.9960   1
1279.947   0.0000   0.0000   0.9960   1
1280.007   0.0000   0.0000   0.9961   1
1280.066   0.0000   0.0000   0.9961   1
1280.126   0.0000   0.0000   0.9961   1
1280.186   0.0000   0.0000   0.9961   1
1280.246   0.0000   0.0000   0.9961   1
1280.306   0.0000   0.0000   0.9961   1
1280.365   0.0000   0.0000   0.9961   1
1280.425   0.0000   0.0000   0.9961   1
1280.485   0.0000   0.0000   0.9961   1
1280.545   0.0000   0.0000   0.9961   1
1280.605   0.0000   0.0000   0.9961   1
1280.665   0.0000   0.0000   0.9961   1
1280.724   0.0000   0.0000   0.9961   1
1280.784   0.0000   0.0000   0.9962   1
1280.844   0.0000   0.0000   0.9962   1
1280.904   0.0000   0.0000   0.9962   1
1280.964   0.0000   0.0000   0.9962   1
1281.024   0.0000   0.0000   0.9962   1
1281.083   0.0000   0.0000   0.9962   1
1281.143   0.0000   0.0000   0.9962   1
1281.203   0.0000   0.0000   0.9962   1
1281.263   0.0000   0.0000   0.9962   1
1281.323   0.0000   0.0000   0.9962   1
1281.382   0.0000   0.0000   0.9962   1
1281.442   0.0000   0.0000   0.9962   1
1281.502   0.0000   0.0000   0.9962   1
1281.562   0.0000   0.0000   0.9962   1
1281.622   0.0000   0.0000   0.9962   1
1281.682   0.0000   0.0000   0.9963   1
1281.741   0.0000   0.0000   0.9963   1
1281.801   0.0000   0.0000   0.9963   1
1281.861   0.0000   0.0000   0.9963   1
1281.921   0.0000   0.0000   0.9963   1
1281.981   0.0000   0.0000   0.9963   1
1282.041   0.0000   0.0000   0.9963   1
1282.100   0.0000   0.0000   0.9963   1
1282.160   0.0000   0.0000   0.9963   1
1282.220   0.0000   0.0000   0.9963   1
1282.280   0.0000   0.0000   0.9963   1
1282.340   0.0000   0.0000   0.9963   1
1282.399   0.0000   0.0000   0.9963   1
1282.459   0.0000   0.0000   0.9963   1
1282.519   0.0000   0.0000   0.9963   1
1282.579   0.0000   0.0000   0.9964   1
1282.639   0.0000   0.0000   0.9964   1
1282.698   0.0000   0.0000   0.9964   1
1282.758   0.0000   0.0000   0.9964   1
1282.818   0.0000   0.0000   0.9964   1
1282.878   0.0000   0.0000   0.9964   1
1282.938   0.0000   0.0000   0.9964   1
1282.998   0.0000   0.0000   0.9964   1
1283.057   0.0000   0.0000   0.9964   1
1283.117   0.0000   0.0000   0.9964   1
1283.177   0.0000   0.0000   0.9964   1
1283.237   0.0000   0.0000   0.9964   1
1283.297   0.0000   0.0000   0.9964   1
1283.357   0.0000   0.0000   0.9964   1
1283.416   0.0000   0.0000   0.9964   1
1283.476   0.0000   0.0000   0.9965   1
1283.536   0.0000   0.0000   0.9965   1
1283.596   0.0000   0.0000   0.9965   1
1283.656   0.0000   0.0000   0.9965   1
1283.715   0.0000   0.0000   0.9965   1
1283.775   0.0000   0.0000   0.9965   1
1283.835   0.0000   0.0000   0.9965   1
1283.895   0.0000   0.0000   0.9965   1
1283.955   0.0000   0.0000   0.9965   1
1284.015   0.0000   0.0000   0.9965   1
1284.074   0.0000   0.0000   0.9965   1
1284.134   0.0000   0.0000   0.9965   1
1284.194   0.0000   0.0000   0.9965   1
1284.254   0.0000   0.0000   0.9965   1
1284.314   0.0000   0.0000   0.9965   1
1284.373   0.0000   0.0000   0.9965   1
1284.433   0.0000   0.0000   0.9966   1
1284.493   0.0000   0.0000   0.9966   1
1284.553   0.0000   0.0000   0.9966   1
1284.613   0.0000   0.0000   0.9966   1
1284.673   0.0000   0.0000   0.9966   1
1284.732   0.0000   0.0000   0.9966   1
1284.792   0.0000   0.0000   0.9966   1
1284.852   0.0000   0.0000   0.9966   1
1284.912   0.0000   0.0000   0.9966   1
1284.972   0.0000   0.0000   0.9966   1
1285.031   0.0000   0.0000   0.9966   1
1285.091   0.0000   0.0000   0.9966   1
1285.151   0.0000   0.0000   0.9966   1
1285.211   0.0000   0.0000   0.9966   1
1285.271   0.0000   0.0000   0.9966   1
1285.331   0.0000   0.0000   0.9966   1
1285.390   0.0000   0.0000   0.9966   1
1285.450   0.0000   0.0000   0.9967   1
1285.510   0.0000   0.0000   0.9967   1
1285.570   0.0000   0.0000   0.9967   1
1285.630   0.0000   0.0000   0.9967   1
1285.689   0.0000   0.0000   0.9967   1
1285.749   0.0000   0.0000   0.9967   1
1285.809   0.0000   0.0000   0.9967   1
1285.869   0.0000   0.0000   0.9967   1
1285.929   0.0000   0.0000   0.9967   1
1285.989   0.0000   0.0000   0.9967   1
1286.048   0.0000   0.0000   0.9967   1
1286.108   0.0000   0.0000   0.9967   1
1286.168   0.0000   0.0000   0.9967   1
1286.228   0.0000   0.0000   0.9967   1
1286.288   0.0000   0.0000   0.9967   1
1286.348   0.0000   0.0000   0.9967   1
1286.407   0.0000   0.0000   0.9967   1
1286.467   0.0000   0.0000   0.9967   1
1286.527   0.0000   0.0000   0.9968   1
1286.587   0.0000   0.0000   0.9968   1
1286.647   0.0000   0.0000   0.9968   1
1286.706   0.0000   0.0000   0.9968   1
1286.766   0.0000   0.0000   0.9968   1
1286.826   0.0000   0.0000   0.9968   1
1286.886   0.0000   0.0000   0.9968   1
1286.946   0.0000   0.0000   0.9968   1
1287.005   0.0000   0.0000   0.9968   1
1287.065   0.0000   0.0000   0.9968   1
1287.125   0.0000   0.0000   0.9968   1
1287.185   0.0000   0.0000   0.9968   1
1287.245   0.0000   0.0000   0.9968   1
1287.305   0.0000   0.0000   0.9968   1
1287.365   0.0000   0.0000   0.9968   1
1287.424   0.0000   0.0000   0.9968   1
1287.484   0.0000   0.0000   0.9968   1
1287.544   0.0000   0.0000   0.9968   1
1287.604   0.0000   0.0000   0.9969   1
1287.664   0.0000   0.0000   0.9969   1
1287.723   0.0000   0.0000   0.9969   1
1287.783   0.3539   0.2355   0.9969   1
1287.843   0.3536   0.3151   0.9969   1
1287.903   0.6480   0.3563   0.9969   1
1287.963   0.2944   0.3055   0.9969   1
1288.022   0.4708   0.3326   0.9969   1
1288.082   0.7648   0.3707   0.9969   1
1288.142   0.8821   0.3852   0.9969   1
1288.202   0.4115   0.3221   0.9969   1
1288.262   1.0058   0.5909   0.9969   1
1288.322   1.1712   0.6957   0.9969   1
1288.381   1.2903   0.7131   0.9969   1
1288.441   0.8193   0.6386   0.9969   1
1288.501   0.7015   0.6216   0.9969   1
1288.561   0.5841   0.6042   0.9969   1
1288.621   0.7017   0.6250   0.9969   1
1288.681   0.9368   0.6588   0.9969   1
1288.740   0.3491   0.5621   0.9969   1
1288.800   1.1697   0.6907   0.9970   1
1288.860   0.9352   0.6577   0.9970   1
1288.920   0.9351   0.6532   0.9970   1
1288.980   0.8175   0.6399   0.9970   1
1289.039   0.4656   0.5832   0.9970   1
1289.099   0.8168   0.6394   0.9970   1
1289.159   1.0506   0.6792   0.9970   1
1289.219   1.0505   0.6712   0.9970   1
1289.279   0.8192   0.6433   0.9970   1
1289.339   0.7026   0.6216   0.9970   1
1289.398   0.8198   0.6393   0.9970   1
1289.458   0.8200   0.6392   0.9970   1
1289.518   0.3528   0.5604   0.9970   1
1289.578   1.0580   0.6767   0.9970   1
1289.638   0.4700   0.5828   0.9970   1
1289.697   1.0561   0.6748   0.9970   1
1289.757   1.0559   0.6758   0.9970   1
1289.817   0.7047   0.6254   0.9970   1
1289.877   1.0577   0.6799   0.9970   1
1289.937   0.9401   0.6577   0.9970   1
1289.997   1.0576   0.6741   0.9971   1
1290.056   1.0578   0.6760   0.9971   1
1290.116   0.9408   0.6604   0.9971   1
1290.176   0.8228   0.6390   0.9971   1
1290.236   0.5880   0.5969   0.9971   1
1290.296   0.5884   0.6042   0.9971   1
1290.355   1.8828   0.7776   0.9971   1
1290.415   1.0593   0.6773   0.9971   1
1290.475   0.5887   0.5297   0.9971   1
1290.535   0.0000   0.0000   0.9971   1
1290.595   0.6924   0.5854   0.9971   1
1290.655   0.6967   0.4852   0.9971   1
1290.714   1.0487   0.4732   0.9971   1
1290.774   1.2255   0.4904   0.9971   1
1290.834   0.6990   0.4360   0.9971   1
1290.894   0.4648   0.4106   0.9971   1
1290.954   0.4062   0.4036   0.9971   1
1291.013   1.0496   0.4747   0.9971   1
1291.073   0.9330   0.4632   0.9971   1
1291.133   0.6994   0.4371   0.9971   1
1291.193   1.0543   0.4759   0.9971   1
1291.253   1.1711   0.4860   0.9971   1
1291.313   0.9948   0.4711   0.9972   1
1291.372   0.9949   0.4688   0.9972   1
1291.432   0.5844   0.4256   0.9972   1
1291.492   1.2310   0.4925   0.9972   1
1291.552   0.8773   0.4578   0.9972   1
1291.612   1.1120   0.4820   0.9972   1
1291.672   0.6994   0.4402   0.9972   1
1291.731   1.4059   0.5088   0.9972   1
1291.791   0.5850   0.4257   0.9972   1
1291.851   0.9404   0.4668   0.9972   1
1291.911   1.0580   0.4761   0.9972   1
1291.971   1.1169   0.4823   0.9972   1
1292.030   1.1168   0.4823   0.9972   1
1292.090   0.9990   0.4724   0.9972   1
1292.150   0.9406   0.4670   0.9972   1
1292.210   1.0001   0.4711   0.9972   1
1292.270   0.8249   0.4527   0.9972   1
1292.329   0.8256   0.4511   0.9972   1
1292.389   0.8261   0.4560   0.9972   1
1292.449   0.7674   0.4489   0.9972   1
1292.509   1.1829   0.4915   0.9972   1
1292.569   1.1242   0.4859   0.9972   1
1292.629   0.7693   0.4434   0.9973   1
1292.688   0.7104   0.4431   0.9973   1
1292.748   0.7101   0.4278   0.9973   1
1292.808   1.0998   0.3923   0.9973   1
1292.868   0.4718   0.3385   0.9973   1
1292.928   0.8652   0.3745   0.9973   1
1292.988   0.8661   0.3746   0.9973   1
1293.047   0.5513   0.3460   0.9973   1
1293.107   0.7482   0.3639   0.9973   1
1293.167   0.7870   0.3673   0.9973   1
1293.227   0.7084   0.3610   0.9973   1
1293.287   0.7872   0.4395   0.9973   1
1293.346   0.8858   0.4601   0.9973   1
1293.406   0.7477   0.4191   0.9973   1
1293.466   0.5505   0.3458   0.9973   1
1293.526   0.4709   0.3378   0.9973   1
1293.586   0.7883   0.3681   0.9973   1
1293.646   0.7089   0.3608   0.9973   1
1293.705   0.6694   0.3576   0.9973   1
1293.765   0.6300   0.3546   0.9973   1
1293.825   0.7886   0.3688   0.9973   1
1293.885   0.7889   0.3712   0.9973   1
1293.945   0.7891   0.3693   0.9973   1
1294.005   0.5506   0.3461   0.9973   1
1294.064   0.7109   0.3628   0.9974   1
1294.124   1.1071   0.3979   0.9974   1
1294.184   0.9100   0.3791   0.9974   1
1294.244   1.0295   0.3906   0.9974   1
1294.304   0.7517   0.3643   0.9974   1
1294.363   0.9118   0.3799   0.9974   1
1294.423   0.8332   0.3732   0.9974   1
1294.483   1.0727   0.3944   0.9974   1
1294.543   0.8747   0.3767   0.9974   1
1294.603   0.7560   0.3662   0.9974   1
1294.662   0.9551   0.3847   0.9974   1
1294.722   0.8355   0.3727   0.9974   1
1294.782   0.7562   0.3658   0.9974   1
1294.842   0.8762   0.3777   0.9974   1
1294.902   0.6773   0.3592   0.9974   1
1294.962   0.8378   0.3734   0.9974   1
1295.021   0.7973   0.3719   0.9974   1
1295.081   0.7173   0.3649   0.9974   1
1295.141   0.8374   0.3732   0.9974   1
1295.201   0.6376   0.3557   0.9974   1
1295.261   0.7186   0.3641   0.9974   1
1295.321   0.7994   0.3716   0.9974   1
1295.380   0.8395   0.3748   0.9974   1
1295.440   0.7396   0.3761   0.9974   1
1295.500   1.0205   0.4787   0.9974   1
1295.560   0.6759   0.4466   0.9975   1
1295.620   1.1717   0.4469   0.9975   1
1295.679   0.7275   0.3683   0.9975   1
1295.739   1.1152   0.3837   0.9975   1
1295.799   0.7207   0.3204   0.9975   1
1295.859   0.9503   0.3401   0.9975   1
1295.919   0.8308   0.3307   0.9975   1
1295.979   0.7649   0.3242   0.9975   1
1296.038   0.8100   0.3279   0.9975   1
1296.098   0.7218   0.3170   0.9975   1
1296.158   0.8693   0.3293   0.9975   1
1296.218   0.9593   0.3362   0.9975   1
1296.278   0.7799   0.3222   0.9975   1
1296.337   1.2025   0.3540   0.9975   1
1296.397   0.9315   0.3342   0.9975   1
1296.457   0.8422   0.3273   0.9975   1
1296.517   0.8742   0.3300   0.9975   1
1296.577   0.7542   0.3194   0.9975   1
1296.637   0.7548   0.3222   0.9975   1
1296.696   0.6649   0.3151   0.9975   1
1296.756   0.6654   0.3156   0.9975   1
