# Best-fit normalized data and profile from VoigtFit
# column 1 : Wavelength
# column 2 : Normalized flux
# column 3 : Normalized error
# column 4 : Best-fit profile
# column 5 : Pixel mask, 1=included, 0=excluded
1154.875   0.8731   0.4204   0.9980   1
1154.934   0.5981   0.3985   0.9969   1
1154.994   0.6738   0.4048   0.9966   1
1155.054   0.5108   0.3899   0.9965   0
1155.114   0.5499   0.3917   0.9965   0
1155.174   0.7092   0.4058   0.9964   0
1155.233   0.4962   0.3859   0.9964   1
1155.293   0.6736   0.3990   0.9964   1
1155.353   0.5221   0.3851   0.9964   1
1155.413   0.6356   0.3950   0.9964   1
1155.473   1.0500   0.4284   0.9964   1
1155.532   0.5971   0.3900   0.9964   1
1155.592   0.9727   0.4210   0.9963   1
1155.652   0.6718   0.3979   0.9963   1
1155.712   0.8588   0.4130   0.9963   1
1155.772   0.7449   0.4032   0.9963   1
1155.832   0.7085   0.3987   0.9963   1
1155.891   0.5948   0.3893   0.9963   0
1155.951   0.5194   0.3823   0.9963   0
1156.011   0.3314   0.3667   0.9963   0
1156.071   0.8165   0.4069   0.9963   0
1156.131   0.6674   0.3951   0.9963   0
1156.191   0.5179   0.3825   0.9963   0
1156.250   0.5545   0.3859   0.9963   0
1156.310   0.5912   0.3878   0.9963   0
1156.370   0.4786   0.3775   0.9963   0
1156.430   0.9383   0.4173   0.9962   0
1156.490   0.5379   0.3857   0.9962   0
1156.549   0.7006   0.4004   0.9962   0
1156.609   0.4277   0.3756   0.9962   0
1156.669   0.7338   0.4024   0.9962   0
1156.729   0.3835   0.3708   0.9962   0
1156.789   0.6985   0.3991   0.9962   0
1156.849   0.6943   0.3975   0.9962   0
1156.908   0.9323   0.4148   0.9962   0
1156.968   0.5494   0.3812   0.9962   0
1157.028   0.4387   0.3720   0.9962   0
1157.088   0.5120   0.3792   0.9962   0
1157.148   0.3642   0.3657   0.9962   0
1157.208   0.5859   0.3848   0.9962   0
1157.267   0.6222   0.3869   0.9961   0
1157.327   0.4011   0.3682   0.9961   0
1157.387   0.4014   0.3674   0.9961   0
1157.447   0.8424   0.4033   0.9961   0
1157.507   0.7317   0.3963   0.9961   0
1157.566   0.7314   0.3962   0.9961   0
1157.626   0.9871   0.4151   0.9961   0
1157.686   0.7298   0.3946   0.9961   0
1157.746   0.6428   0.3987   0.9961   0
1157.806   0.7781   0.4600   0.9961   0
1157.865   0.8261   0.4651   0.9961   0
1157.925   0.6790   0.4514   0.9961   0
1157.985   0.5320   0.4363   0.9961   0
1158.045   0.9222   0.4720   0.9960   0
1158.105   0.8236   0.4637   0.9960   0
1158.165   0.5420   0.3778   0.9960   0
1158.224   0.6506   0.3866   0.9960   0
1158.284   0.3577   0.3615   0.9960   0
1158.344   0.4298   0.3683   0.9960   0
1158.404   0.5389   0.3772   0.9960   0
1158.464   0.6836   0.3893   0.9960   0
1158.524   0.7914   0.3988   0.9960   0
1158.583   0.7889   0.3980   0.9960   0
1158.643   0.8613   0.4035   0.9960   0
1158.703   0.5348   0.3760   0.9960   0
1158.763   0.7885   0.3969   0.9960   0
1158.823   0.6075   0.3822   0.9959   0
1158.882   0.7525   0.3940   0.9959   0
1158.942   0.8252   0.3995   0.9959   0
1159.002   0.7160   0.3908   0.9959   0
1159.062   0.9322   0.4081   0.9959   0
1159.122   0.7163   0.3901   0.9959   0
1159.182   0.8261   0.3977   0.9959   0
1159.241   0.8258   0.3978   0.9959   0
1159.301   0.5381   0.3757   0.9959   0
1159.361   0.7386   0.3631   0.9959   0
1159.421   0.5735   0.3773   0.9959   0
1159.481   0.7176   0.3900   0.9959   0
1159.540   0.7184   0.3886   0.9958   0
1159.600   0.5383   0.3738   0.9958   0
1159.660   0.4663   0.3683   0.9958   0
1159.720   0.6087   0.3799   0.9958   0
1159.780   0.7155   0.3900   0.9958   0
1159.840   0.6140   0.3803   0.9958   0
1159.899   0.7449   0.3926   0.9958   0
1159.959   0.4720   0.3730   0.9958   0
1160.019   0.9599   0.4167   0.9958   0
1160.079   0.4700   0.3724   0.9958   0
1160.139   0.5856   0.3823   0.9958   0
1160.198   0.7094   0.3945   0.9957   0
1160.258   0.8303   0.4043   0.9957   0
1160.318   0.5673   0.3791   0.9957   0
1160.378   0.5826   0.3790   0.9957   0
1160.438   0.6776   0.3853   0.9957   0
1160.498   0.4942   0.3682   0.9957   0
1160.557   0.7102   0.3866   0.9957   0
1160.617   0.6385   0.3802   0.9957   0
1160.677   0.6735   0.3835   0.9957   0
1160.737   0.7096   0.3869   0.9957   0
1160.797   0.7097   0.3861   0.9957   0
1160.856   0.7087   0.3858   0.9956   0
1160.916   1.0294   0.4117   0.9956   0
1160.976   0.7451   0.3866   0.9956   0
1161.036   0.8745   0.4231   0.9956   0
1161.096   0.6616   0.4404   0.9956   0
1161.156   0.3774   0.4117   0.9956   0
1161.215   1.1821   0.4869   0.9956   0
1161.275   0.6131   0.4352   0.9956   0
1161.335   0.4234   0.4170   0.9956   0
1161.395   0.5188   0.4152   0.9956   0
1161.455   0.8141   0.3918   0.9955   0
1161.515   0.3886   0.3572   0.9955   0
1161.574   0.6380   0.3778   0.9955   0
1161.634   0.9568   0.4041   0.9955   0
1161.694   0.7434   0.3860   0.9955   0
1161.754   0.4582   0.3634   0.9955   0
1161.814   0.6705   0.3809   0.9955   0
1161.873   0.6350   0.3772   0.9955   0
1161.933   0.5986   0.3758   0.9955   0
1161.993   1.0595   0.4093   0.9955   0
1162.053   0.6690   0.3816   0.9954   0
1162.113   0.6687   0.3788   0.9954   0
1162.172   0.7038   0.3826   0.9954   0
1162.232   0.5980   0.3750   0.9954   0
1162.292   0.7038   0.3827   0.9954   0
1162.352   0.7389   0.3854   0.9954   0
1162.412   0.8086   0.3902   0.9954   0
1162.472   0.9140   0.3982   0.9954   0
1162.531   0.7021   0.3832   0.9954   0
1162.591   0.7371   0.3847   0.9954   0
1162.651   0.6665   0.3785   0.9953   0
1162.711   0.5374   0.4056   0.9953   0
1162.771   0.8882   0.4560   0.9953   0
1162.831   0.7937   0.4493   0.9953   0
1162.890   0.5596   0.4258   0.9953   0
1162.950   0.3726   0.4070   0.9953   0
1163.010   0.7946   0.4484   0.9953   0
1163.070   0.4433   0.3871   0.9953   0
1163.130   0.8062   0.3886   0.9953   0
1163.189   0.7079   0.3805   0.9953   0
1163.249   0.6943   0.3813   0.9952   0
1163.309   0.8488   0.3967   0.9952   0
1163.369   1.0620   0.4117   0.9952   0
1163.429   0.6248   0.3759   0.9952   0
1163.489   0.5889   0.3744   0.9952   0
1163.548   0.5918   0.3751   0.9952   0
1163.608   0.6215   0.3770   0.9952   0
1163.668   0.3241   0.3490   0.9952   0
1163.728   0.3144   0.3467   0.9952   0
1163.788   0.4900   0.3631   0.9951   0
1163.848   0.8739   0.3938   0.9951   0
1163.907   0.5594   0.3688   0.9951   0
1163.967   0.6292   0.3737   0.9951   0
1164.027   0.7685   0.3843   0.9951   0
1164.087   0.4534   0.3575   0.9951   0
1164.147   0.5226   0.3639   0.9951   0
1164.206   0.5907   0.3699   0.9951   0
1164.266   0.6599   0.3757   0.9951   0
1164.326   0.5205   0.3639   0.9950   0
1164.386   0.6245   0.3714   0.9950   0
1164.446   0.8337   0.3880   0.9950   0
1164.505   0.4138   0.3542   0.9950   0
1164.565   0.6217   0.3706   0.9950   0
1164.625   0.5164   0.3618   0.9950   0
1164.685   0.6540   0.3751   0.9950   1
1164.745   0.8261   0.3871   0.9950   1
1164.805   0.4793   0.3592   0.9949   1
1164.865   0.5588   0.3657   0.9949   1
1164.924   0.5380   0.3662   0.9949   1
1164.984   0.7599   0.3847   0.9949   1
1165.044   0.5377   0.3667   0.9949   1
1165.104   0.7944   0.3868   0.9949   1
1165.164   0.6522   0.3772   0.9949   1
1165.223   0.5393   0.3668   0.9949   1
1165.283   1.0027   0.4003   0.9949   1
1165.343   1.2012   0.4138   0.9948   1
1165.403   0.8930   0.3910   0.9948   1
1165.463   0.8251   0.3855   0.9948   1
1165.522   0.6186   0.3692   0.9948   1
1165.582   0.8259   0.3846   0.9948   1
1165.642   1.0676   0.4022   0.9948   1
1165.702   0.6199   0.3682   0.9948   1
1165.762   0.7231   0.3772   0.9948   1
1165.822   0.7919   0.3828   0.9947   1
1165.881   0.6877   0.3735   0.9947   1
1165.941   1.1354   0.4076   0.9947   1
1166.001   0.7215   0.3764   0.9947   1
1166.061   0.9269   0.3907   0.9947   1
1166.121   0.9942   0.4069   0.9947   1
1166.181   1.0953   0.4666   0.9947   1
1166.240   0.7745   0.4384   0.9947   1
1166.300   0.5916   0.4206   0.9946   1
1166.360   0.5455   0.4152   0.9946   1
1166.420   1.2763   0.4803   0.9946   1
1166.480   0.8186   0.4415   0.9946   1
1166.539   0.7167   0.3754   0.9946   1
1166.599   1.0589   0.3989   0.9946   1
1166.659   0.9534   0.3927   0.9946   0
1166.719   0.8161   0.3833   0.9945   0
1166.779   0.6789   0.3702   0.9945   0
1166.839   0.6435   0.3671   0.9945   0
1166.898   0.5748   0.3626   0.9945   0
1166.958   0.6766   0.3714   0.9945   0
1167.018   0.8116   0.3811   0.9945   0
1167.078   0.8797   0.3856   0.9945   0
1167.138   0.8789   0.3860   0.9945   0
1167.197   0.7086   0.3726   0.9944   0
1167.257   0.7078   0.3715   0.9944   0
1167.317   0.7416   0.3752   0.9944   0
1167.377   0.6402   0.3668   0.9944   0
1167.437   0.7403   0.3737   0.9944   0
1167.497   0.7394   0.3745   0.9944   0
1167.556   0.8076   0.3781   0.9944   0
1167.616   0.8757   0.3844   0.9943   0
1167.676   0.7402   0.3738   0.9943   0
1167.736   0.6032   0.3631   0.9943   0
1167.796   0.7046   0.3709   0.9943   0
1167.855   0.5350   0.3574   0.9943   0
1167.915   0.5009   0.3540   0.9943   0
1167.975   0.7724   0.3754   0.9943   0
1168.035   0.6045   0.3626   0.9942   0
1168.095   0.4010   0.3445   0.9942   0
1168.155   0.7395   0.3717   0.9942   0
1168.214   0.7395   0.3725   0.9942   0
1168.274   0.4456   0.3486   0.9942   0
1168.334   0.8297   0.3841   0.9942   0
1168.394   0.5960   0.3671   0.9942   0
1168.454   0.5980   0.3664   0.9941   0
1168.513   0.8241   0.3858   0.9941   0
1168.573   0.6356   0.3706   0.9941   0
1168.633   0.7877   0.3839   0.9941   0
1168.693   0.7412   0.3788   0.9941   0
1168.753   0.7261   0.3755   0.9941   0
1168.813   0.7615   0.3746   0.9941   0
1168.872   0.7435   0.3728   0.9940   0
1168.932   0.3680   0.3397   0.9940   0
1168.992   0.5344   0.3544   0.9940   0
1169.052   0.5334   0.3537   0.9940   0
1169.112   0.5333   0.3529   0.9940   0
1169.172   0.7009   0.3664   0.9940   0
1169.231   0.6009   0.3593   0.9939   0
1169.291   0.4999   0.3494   0.9939   0
1169.351   0.5326   0.3540   0.9939   0
1169.411   0.3639   0.3379   0.9939   0
1169.471   0.7304   0.3694   0.9939   0
1169.530   0.4622   0.3460   0.9939   0
1169.590   0.4943   0.3489   0.9938   0
1169.650   0.5282   0.3524   0.9938   0
1169.710   0.7278   0.3681   0.9938   0
1169.770   0.6616   0.3623   0.9938   0
1169.829   0.9612   0.3864   0.9938   0
1169.889   0.5282   0.3519   0.9938   0
1169.949   0.5612   0.3547   0.9938   0
1170.009   0.4283   0.3429   0.9937   0
1170.069   0.4947   0.3489   0.9937   0
1170.129   0.4945   0.3484   0.9937   0
1170.188   0.6608   0.3620   0.9937   0
1170.248   0.6600   0.3616   0.9937   0
1170.308   0.3943   0.3385   0.9937   0
1170.368   0.3610   0.3360   0.9936   0
1170.428   0.6257   0.3578   0.9936   0
1170.488   0.4604   0.3432   0.9936   0
1170.547   0.4601   0.3443   0.9936   0
1170.607   0.7910   0.3707   0.9936   0
1170.667   0.5928   0.3560   0.9936   0
1170.727   0.6255   0.3564   0.9935   0
1170.787   0.8230   0.3740   0.9935   0
1170.846   0.7558   0.3658   0.9935   0
1170.906   0.7558   0.3686   0.9935   0
1170.966   0.5626   0.3269   0.9935   0
1171.026   0.7221   0.3650   0.9935   0
1171.086   0.9191   0.3801   0.9934   0
1171.146   0.3588   0.3346   0.9934   0
1171.205   0.6557   0.3593   0.9934   0
1171.265   0.3910   0.3369   0.9934   0
1171.325   0.5239   0.3477   0.9934   0
1171.385   0.3919   0.3371   0.9933   0
1171.445   0.5238   0.3470   0.9933   0
1171.505   0.5893   0.3535   0.9933   0
1171.564   0.7650   0.3679   0.9933   0
1171.624   0.4725   0.3452   0.9933   0
1171.684   0.7235   0.3669   0.9933   0
1171.744   0.4817   0.3477   0.9932   0
1171.804   0.5878   0.3560   0.9932   0
1171.863   0.4804   0.3468   0.9932   0
1171.923   0.5152   0.3502   0.9932   0
1171.983   0.4112   0.3409   0.9932   0
1172.043   0.4423   0.3429   0.9931   0
1172.103   0.2312   0.3225   0.9931   0
1172.162   0.3252   0.3310   0.9931   0
1172.222   0.5218   0.3478   0.9931   0
1172.282   0.5546   0.3511   0.9931   0
1172.342   0.6201   0.3554   0.9930   0
1172.402   0.6523   0.3570   0.9930   0
1172.462   0.6191   0.3550   0.9930   0
1172.521   0.3563   0.3323   0.9930   0
1172.581   0.4878   0.3448   0.9930   0
1172.641   0.3890   0.3362   0.9930   0
1172.701   0.4224   0.3394   0.9929   0
1172.761   0.4217   0.3399   0.9929   0
1172.821   0.5192   0.3468   0.9929   0
1172.880   0.5848   0.3523   0.9929   0
1172.940   0.6164   0.3554   0.9929   0
1173.000   0.4528   0.3418   0.9928   0
1173.060   0.6827   0.3615   0.9928   0
1173.120   0.5178   0.3483   0.9928   0
1173.179   0.5847   0.3533   0.9928   0
1173.239   0.3619   0.3353   0.9928   0
1173.299   0.5051   0.3487   0.9927   0
1173.359   0.4428   0.3437   0.9927   0
1173.419   0.5166   0.3512   0.9927   0
1173.479   0.3066   0.3323   0.9927   0
1173.538   0.6534   0.3631   0.9927   0
1173.598   0.6153   0.3585   0.9926   0
1173.658   0.2702   0.3278   0.9926   0
1173.718   0.5376   0.3503   0.9926   0
1173.778   0.4928   0.3460   0.9926   0
1173.837   0.3902   0.3363   0.9925   0
1173.897   0.5873   0.3539   0.9925   0
1173.957   0.4574   0.3429   0.9925   0
1174.017   0.4899   0.3458   0.9925   0
1174.077   0.7204   0.3628   0.9925   0
1174.137   0.3600   0.3342   0.9924   0
1174.196   0.5243   0.3481   0.9924   0
1174.256   0.5576   0.3508   0.9924   0
1174.316   0.4261   0.3405   0.9924   0
1174.376   0.4584   0.3431   0.9924   0
1174.436   0.4256   0.3406   0.9923   0
1174.495   0.3926   0.3375   0.9923   0
1174.555   0.3593   0.3349   0.9923   0
1174.615   0.3924   0.3376   0.9923   0
1174.675   0.2939   0.3284   0.9922   0
1174.735   0.3597   0.3350   0.9922   0
1174.795   0.3604   0.3348   0.9922   0
1174.854   0.2942   0.3283   0.9922   0
1174.914   0.3270   0.3322   0.9922   0
1174.974   0.1958   0.3196   0.9921   0
1175.034   0.1961   0.3201   0.9921   0
1175.094   0.3596   0.3356   0.9921   0
1175.153   0.0951   0.3104   0.9921   0
1175.213   0.3255   0.3321   0.9920   0
1175.273   0.2922   0.3294   0.9920   0
1175.333   0.3249   0.3329   0.9920   0
1175.393   0.2594   0.3268   0.9920   0
1175.453   0.1936   0.3205   0.9919   0
1175.512   0.4240   0.3415   0.9919   0
1175.572   0.3575   0.3359   0.9919   0
1175.632   0.1601   0.3168   0.9919   0
1175.692   0.5553   0.3526   0.9918   0
1175.752   0.3578   0.3358   0.9918   0
1175.812   0.3255   0.3336   0.9918   0
1175.871   0.3587   0.3360   0.9918   0
1175.931   0.3584   0.3364   0.9917   0
1175.991   0.2253   0.3240   0.9917   0
1176.051   0.1931   0.3212   0.9917   0
1176.111   0.2934   0.3306   0.9917   0
1176.170   0.1952   0.3212   0.9916   0
1176.230   0.3264   0.3340   0.9916   0
1176.290   0.2591   0.3277   0.9916   0
1176.350   0.2920   0.3305   0.9916   0
1176.410   0.4563   0.3458   0.9915   0
1176.469   0.1263   0.3154   0.9915   0
1176.529   0.1930   0.3218   0.9915   0
1176.589   0.1602   0.3190   0.9915   0
1176.649   0.0621   0.3095   0.9914   0
1176.709   0.2054   0.3252   0.9914   0
1176.769   0.2132   0.3277   0.9914   0
1176.828   0.1819   0.3257   0.9914   0
1176.888   0.1805   0.3245   0.9913   0
1176.948   0.2521   0.3315   0.9913   0
1177.008   0.1425   0.3205   0.9913   0
1177.068   0.1421   0.3204   0.9913   0
1177.128   0.2137   0.3271   0.9912   0
1177.187   0.1009   0.3147   0.9912   0
1177.247   0.2989   0.3337   0.9912   0
1177.307   0.0656   0.3106   0.9912   0
1177.367   0.2315   0.3264   0.9911   0
1177.427   0.2978   0.3333   0.9911   0
1177.486   0.1977   0.3239   0.9911   0
1177.546   0.2976   0.3335   0.9910   0
1177.606   0.2645   0.3301   0.9910   0
1177.666   0.2645   0.3306   0.9910   0
1177.726   0.1649   0.3215   0.9910   0
1177.786   0.2304   0.3274   0.9909   0
1177.845   0.3305   0.3374   0.9909   0
1177.905   0.1970   0.3248   0.9909   0
1177.965   0.1633   0.3220   0.9908   0
1178.025   0.2290   0.3285   0.9908   0
1178.085   0.3289   0.3382   0.9908   0
1178.145   0.1959   0.3256   0.9908   0
1178.204   0.3966   0.3435   0.9907   0
1178.264   0.3298   0.3383   0.9907   0
1178.324   0.4305   0.3473   0.9907   0
1178.384   0.4639   0.3498   0.9906   0
1178.444   0.3972   0.3438   0.9906   0
1178.503   0.2971   0.3358   0.9906   0
1178.563   0.4650   0.3511   0.9905   0
1178.623   0.3641   0.3422   0.9905   0
1178.683   0.2972   0.3358   0.9905   0
1178.743   0.4320   0.3485   0.9905   0
1178.802   0.2318   0.3302   0.9904   0
1178.862   0.3326   0.3398   0.9904   0
1178.922   0.2991   0.3370   0.9904   0
1178.982   0.2995   0.3366   0.9903   0
1179.042   0.7024   0.3695   0.9903   0
1179.102   0.4347   0.3486   0.9903   0
1179.161   0.5695   0.3607   0.9902   0
1179.221   0.8022   0.3776   0.9902   0
1179.281   0.5339   0.3555   0.9902   0
1179.341   0.6339   0.3646   0.9901   0
1179.401   0.7342   0.3720   0.9901   0
1179.461   0.4329   0.3469   0.9901   0
1179.520   0.6668   0.3669   0.9900   0
1179.580   0.4330   0.3472   0.9900   0
1179.640   0.5000   0.3532   0.9900   0
1179.700   0.8330   0.3792   0.9899   0
1179.760   0.6987   0.3683   0.9899   0
1179.819   0.7982   0.3775   0.9899   0
1179.879   0.7985   0.3764   0.9898   0
1179.939   0.7684   0.3754   0.9898   0
1179.999   0.6104   0.3638   0.9898   0
1180.059   0.9375   0.3903   0.9897   0
1180.119   0.5588   0.3608   0.9897   0
1180.178   0.6934   0.3702   0.9897   0
1180.238   0.7959   0.3780   0.9896   0
1180.298   1.0379   0.3950   0.9896   0
1180.358   0.5801   0.3584   0.9896   0
1180.418   0.8595   0.3821   0.9895   0
1180.477   0.5394   0.3561   0.9895   0
1180.537   0.8623   0.3784   0.9895   0
1180.597   0.5587   0.3557   0.9894   0
1180.657   0.5917   0.3587   0.9894   0
1180.717   0.6913   0.3660   0.9894   0
1180.777   0.7239   0.3673   0.9893   0
1180.836   0.5906   0.3576   0.9893   0
1180.896   0.7554   0.3699   0.9892   1
1180.956   0.9533   0.3849   0.9892   1
1181.016   0.9212   0.3832   0.9892   1
1181.076   0.5913   0.3575   0.9891   1
1181.135   0.7567   0.3692   0.9891   1
1181.195   0.8548   0.3777   0.9891   1
1181.255   0.6223   0.3580   0.9890   1
1181.315   0.7865   0.3707   0.9890   1
1181.375   1.1155   0.3948   0.9889   1
1181.435   0.9174   0.3812   0.9889   1
1181.494   0.4897   0.3478   0.9889   1
1181.554   0.5879   0.3549   0.9888   1
1181.614   0.5899   0.3565   0.9888   1
1181.674   0.4331   0.3431   0.9888   1
1181.734   0.8930   0.3826   0.9887   1
1181.793   0.6194   0.3604   0.9887   1
1181.853   0.5462   0.3545   0.9886   1
1181.913   0.8171   0.3767   0.9886   1
1181.973   0.6108   0.3578   0.9886   1
1182.033   0.8806   0.3771   0.9885   1
1182.093   0.8428   0.3756   0.9885   1
1182.152   0.6938   0.3620   0.9884   1
1182.212   0.7805   0.3690   0.9884   1
1182.272   0.7469   0.3655   0.9884   1
1182.332   0.8126   0.3704   0.9883   1
1182.392   0.8776   0.3763   0.9883   1
1182.452   0.3875   0.3345   0.9882   1
1182.511   0.7775   0.3406   0.9882   1
1182.571   0.9069   0.3770   0.9881   1
1182.631   0.7118   0.3604   0.9881   1
1182.691   1.0344   0.3861   0.9881   1
1182.751   0.8069   0.3697   0.9880   1
1182.810   0.6761   0.3571   0.9880   1
1182.870   0.8053   0.3684   0.9879   1
1182.930   0.7076   0.3604   0.9879   1
1182.990   0.5781   0.3492   0.9878   1
1183.050   0.7075   0.3601   0.9878   1
1183.109   0.9979   0.3812   0.9878   1
1183.169   0.6738   0.3543   0.9877   1
1183.229   0.7705   0.3632   0.9877   1
1183.289   0.9310   0.3744   0.9876   1
1183.349   0.7368   0.3607   0.9876   1
1183.409   1.1863   0.3928   0.9875   1
1183.469   0.6375   0.3521   0.9875   1
1183.528   0.7333   0.3599   0.9874   1
1183.588   0.7023   0.3576   0.9874   1
1183.648   0.5735   0.3474   0.9873   1
1183.708   0.9562   0.3738   0.9873   1
1183.768   0.8600   0.3678   0.9872   1
1183.827   1.2766   0.3963   0.9872   1
1183.887   0.8894   0.3697   0.9872   1
1183.947   0.6333   0.3499   0.9871   1
1184.007   0.7928   0.3619   0.9871   1
1184.067   0.8886   0.3687   0.9870   1
1184.126   0.7590   0.3595   0.9870   1
1184.186   0.9499   0.3715   0.9869   1
1184.246   0.5998   0.3471   0.9869   0
1184.306   0.9809   0.3710   0.9868   0
1184.366   0.7579   0.3575   0.9868   0
1184.426   0.9793   0.3730   0.9867   0
1184.485   0.6634   0.3501   0.9867   0
1184.545   0.6309   0.3471   0.9866   0
1184.605   0.8826   0.3655   0.9866   0
1184.665   0.7545   0.3573   0.9865   0
1184.725   0.5015   0.3354   0.9865   0
1184.785   0.7535   0.3555   0.9864   0
1184.844   0.8161   0.3611   0.9864   0
1184.904   0.7532   0.3542   0.9863   0
1184.964   0.6264   0.3449   0.9862   0
1185.024   0.8159   0.3594   0.9862   0
1185.084   1.0578   0.3779   0.9861   0
1185.143   0.5677   0.3433   0.9861   0
1185.203   0.6530   0.3509   0.9860   0
1185.263   0.6508   0.3522   0.9860   0
1185.323   0.6491   0.3508   0.9859   0
1185.383   0.7097   0.3545   0.9859   0
1185.443   0.8770   0.3679   0.9858   0
1185.502   0.5401   0.3408   0.9858   0
1185.562   0.3264   0.3190   0.9857   0
1185.622   0.5964   0.3393   0.9856   0
1185.682   0.5569   0.3349   0.9856   0
1185.742   0.5252   0.3332   0.9855   0
1185.801   0.7420   0.3489   0.9855   0
1185.861   0.4622   0.3266   0.9854   0
1185.921   0.5233   0.3326   0.9854   0
1185.981   0.3064   0.3132   0.9853   0
1186.041   0.6776   0.3431   0.9852   0
1186.101   0.7084   0.3468   0.9852   0
1186.160   0.7369   0.3477   0.9851   0
1186.220   0.5519   0.3327   0.9851   0
1186.280   0.6743   0.3415   0.9850   0
1186.340   0.4276   0.3225   0.9849   0
1186.400   0.6113   0.3374   0.9849   0
1186.459   0.7637   0.3491   0.9848   0
1186.519   0.6395   0.3384   0.9848   0
1186.579   0.5467   0.3310   0.9847   0
1186.639   0.7295   0.3443   0.9846   0
1186.699   0.3917   0.3178   0.9846   0
1186.759   0.5434   0.3299   0.9845   0
1186.818   0.6635   0.3399   0.9844   0
1186.878   0.4201   0.3178   0.9844   0
1186.938   0.4812   0.3236   0.9843   0
1186.998   0.4804   0.3226   0.9843   0
1187.058   0.5108   0.3255   0.9842   0
1187.117   0.4799   0.3237   0.9841   0
1187.177   0.6016   0.3339   0.9841   0
1187.237   0.6018   0.3327   0.9840   0
1187.297   0.7534   0.3436   0.9839   0
1187.357   0.9046   0.3565   0.9839   0
1187.417   0.8135   0.3488   0.9838   0
1187.476   0.8135   0.3484   0.9837   0
1187.536   0.8131   0.3486   0.9837   0
1187.596   0.6614   0.3349   0.9836   0
1187.656   0.8130   0.3484   0.9835   0
1187.716   0.8430   0.3490   0.9834   0
1187.776   0.6022   0.3326   0.9834   0
1187.835   0.7532   0.3425   0.9833   0
1187.895   0.7533   0.3439   0.9832   0
1187.955   0.7233   0.3406   0.9832   0
1188.015   0.6312   0.3333   0.9831   0
1188.075   0.6902   0.3375   0.9830   0
1188.134   0.6594   0.3347   0.9829   0
1188.194   0.9004   0.3533   0.9829   0
1188.254   0.7190   0.3404   0.9828   0
1188.314   0.6281   0.3322   0.9827   0
1188.374   0.8680   0.3500   0.9827   0
1188.433   0.6721   0.3362   0.9826   0
1188.493   0.6532   0.3364   0.9825   0
1188.553   0.5000   0.3242   0.9824   0
1188.613   0.7505   0.3437   0.9823   0
1188.673   0.5901   0.3290   0.9823   0
1188.733   0.6545   0.3357   0.9822   0
1188.792   0.7473   0.3426   0.9821   0
1188.852   0.5191   0.3231   0.9820   0
1188.912   0.5065   0.3208   0.9820   0
1188.972   0.5615   0.3248   0.9819   0
1189.032   0.8898   0.3495   0.9818   0
1189.092   0.5312   0.3215   0.9817   0
1189.151   0.6505   0.3314   0.9816   0
1189.211   0.6493   0.3309   0.9816   0
1189.271   0.6489   0.3308   0.9815   0
1189.331   0.8882   0.3477   0.9814   0
1189.391   0.7976   0.3423   0.9813   0
1189.450   0.6480   0.3299   0.9812   0
1189.510   0.7651   0.3387   0.9811   0
1189.570   1.0916   0.3628   0.9810   0
1189.630   0.5276   0.3203   0.9810   0
1189.690   0.4974   0.3173   0.9809   0
1189.750   0.7342   0.3369   0.9808   0
1189.809   0.4381   0.3131   0.9807   0
1189.869   0.5276   0.3193   0.9806   0
1189.929   0.3501   0.3045   0.9805   0
1189.989   0.3794   0.3069   0.9804   0
1190.049   0.3815   0.3074   0.9803   0
1190.109   0.4856   0.3178   0.9803   0
1190.168   0.2428   0.2959   0.9802   0
1190.228   0.6143   0.3275   0.9801   0
1190.288   0.1200   0.2829   0.9800   0
1190.348   0.1516   0.2868   0.9799   0
1190.408   0.1524   0.2867   0.9798   0
1190.467   0.0904   0.2802   0.9797   0
1190.527   0.1192   0.2824   0.9796   0
1190.587   0.0862   0.2783   0.9795   0
1190.647   0.0574   0.2751   0.9794   0
1190.707   0.0868   0.2780   0.9793   0
1190.766   0.1162   0.2808   0.9792   0
1190.826   0.0867   0.2773   0.9791   0
1190.886   0.1448   0.2834   0.9790   0
1190.946   0.0859   0.2774   0.9789   0
1191.006   0.4082   0.3065   0.9788   0
1191.066   0.2026   0.2886   0.9787   0
1191.125   0.2609   0.2934   0.9786   0
1191.185   0.4364   0.3089   0.9785   0
1191.245   0.1728   0.2854   0.9784   0
1191.305   0.1141   0.2793   0.9783   0
1191.365   0.1439   0.2821   0.9782   0
1191.425   0.2314   0.2901   0.9781   0
1191.484   0.1438   0.2818   0.9780   0
1191.544   0.1723   0.2842   0.9779   0
1191.604   0.0555   0.2727   0.9778   0
1191.664   0.1137   0.2781   0.9777   0
1191.724   0.1136   0.2783   0.9775   0
1191.783   0.2008   0.2866   0.9774   0
1191.843   0.1428   0.2809   0.9773   0
1191.903   0.0560   0.2720   0.9772   0
1191.963   0.0850   0.2748   0.9771   0
1192.023   0.1141   0.2776   0.9770   0
1192.083   0.1437   0.2803   0.9769   0
1192.142   0.1147   0.2773   0.9768   0
1192.202   0.0855   0.2742   0.9766   0
1192.262   0.0276   0.2682   0.9765   0
1192.322   0.1144   0.2765   0.9764   0
1192.382   0.0565   0.2708   0.9763   0
1192.441   0.1726   0.2823   0.9762   0
1192.501   0.1728   0.2821   0.9760   0
1192.561   0.0576   0.2704   0.9759   0
1192.621   0.1724   0.2811   0.9758   0
1192.681   0.2013   0.2845   0.9757   0
1192.741   0.1434   0.2778   0.9756   0
1192.800   0.2293   0.2869   0.9754   0
1192.860   0.2865   0.2922   0.9753   0
1192.920   0.2576   0.2885   0.9752   0
1192.980   0.0562   0.2694   0.9750   0
1193.040   0.2000   0.2827   0.9749   0
1193.099   0.2576   0.2883   0.9748   0
1193.159   0.2865   0.2906   0.9747   0
1193.219   0.1996   0.2831   0.9745   0
1193.279   0.1415   0.2770   0.9744   0
1193.339   0.1126   0.2740   0.9742   0
1193.399   0.0553   0.2684   0.9741   0
1193.458   0.1417   0.2771   0.9740   0
1193.518   0.0573   0.2691   0.9738   0
1193.578   0.1858   0.2833   0.9737   0
1193.638   0.2197   0.2869   0.9736   0
1193.698   0.0933   0.2738   0.9734   0
1193.757   0.1223   0.2764   0.9733   0
1193.817   0.2484   0.2890   0.9731   0
1193.877   0.1574   0.2803   0.9730   0
1193.937   0.0917   0.2723   0.9728   0
1193.997   0.1468   0.2770   0.9727   0
1194.057   0.1935   0.2593   0.9725   0
1194.116   0.1404   0.2753   0.9724   0
1194.176   0.1684   0.2779   0.9722   0
1194.236   0.1686   0.2774   0.9721   0
1194.296   0.0832   0.2691   0.9719   0
1194.356   0.1399   0.2747   0.9718   0
1194.416   0.1682   0.2773   0.9716   0
1194.475   0.1688   0.2773   0.9715   0
1194.535   0.2255   0.2822   0.9713   0
1194.595   0.1971   0.2794   0.9712   0
1194.655   0.1120   0.2712   0.9710   0
1194.715   0.1114   0.2710   0.9708   0
1194.774   0.0262   0.2623   0.9707   0
1194.834   0.0263   0.2622   0.9705   0
1194.894   0.0545   0.2649   0.9703   0
1194.954   0.1112   0.2704   0.9702   0
1195.014   0.1682   0.2756   0.9700   0
1195.073   0.1964   0.2784   0.9698   0
1195.133   0.0834   0.2671   0.9697   0
1195.193   0.0837   0.2670   0.9695   0
1195.253   0.0831   0.2668   0.9693   0
1195.313   0.1394   0.2723   0.9691   0
1195.373   0.0830   0.2666   0.9690   0
1195.432   0.0539   0.2635   0.9688   0
1195.492   0.0535   0.2634   0.9686   0
1195.552   0.2216   0.2791   0.9684   0
1195.612   0.1364   0.2714   0.9682   0
1195.672   0.3049   0.2864   0.9680   0
1195.732   0.3052   0.2866   0.9678   0
1195.791   0.3322   0.2889   0.9677   0
1195.851   0.4156   0.2961   0.9675   0
1195.911   0.5265   0.3047   0.9673   0
1195.971   0.3018   0.2858   0.9671   0
1196.031   0.3293   0.2882   0.9669   0
1196.090   0.4684   0.3002   0.9667   0
1196.150   0.2730   0.2827   0.9665   0
1196.210   0.3013   0.2852   0.9663   0
1196.270   0.3286   0.2875   0.9661   0
1196.330   0.4956   0.3010   0.9659   0
1196.390   0.3835   0.2918   0.9657   0
1196.449   0.4122   0.2944   0.9655   0
1196.509   0.4112   0.2938   0.9653   0
1196.569   0.4952   0.3007   0.9650   1
1196.629   0.3559   0.2896   0.9648   1
1196.689   0.6056   0.3081   0.9646   1
1196.749   0.6955   0.3159   0.9644   1
1196.808   0.8848   0.3317   0.9642   1
1196.868   0.4349   0.2982   0.9639   1
1196.928   0.6124   0.3129   0.9637   1
1196.988   0.7783   0.3254   0.9635   1
1197.048   0.9201   0.3330   0.9633   1
1197.107   0.6345   0.3123   0.9630   1
1197.167   0.7239   0.3199   0.9628   1
1197.227   1.0978   0.3456   0.9626   1
1197.287   0.6720   0.3142   0.9623   1
1197.347   0.9074   0.3297   0.9621   1
1197.406   1.0169   0.3379   0.9618   1
1197.466   0.6580   0.3115   0.9616   1
1197.526   0.7960   0.3215   0.9614   1
1197.586   0.6291   0.3068   0.9611   1
1197.646   0.8763   0.3258   0.9609   1
1197.706   0.6827   0.3128   0.9606   1
1197.766   1.0389   0.3374   0.9603   1
1197.825   0.9557   0.3324   0.9601   1
1197.885   0.8165   0.3223   0.9598   1
1197.945   0.7337   0.3162   0.9596   1
1198.005   0.5961   0.3047   0.9593   1
1198.065   0.6229   0.3074   0.9590   1
1198.124   0.8683   0.3261   0.9588   1
1198.184   0.8130   0.3217   0.9585   1
1198.244   0.7839   0.3182   0.9582   1
1198.304   0.9744   0.3324   0.9579   1
1198.364   0.8113   0.3199   0.9576   1
1198.423   0.5790   0.3025   0.9573   1
1198.483   0.7588   0.3191   0.9571   1
1198.543   1.0011   0.3376   0.9568   1
1198.603   0.9990   0.3369   0.9565   1
1198.663   0.5056   0.2992   0.9562   0
1198.723   0.5914   0.3059   0.9559   0
1198.782   0.5932   0.3052   0.9556   0
1198.842   0.6233   0.3087   0.9553   0
1198.902   0.5338   0.3007   0.9550   0
1198.962   0.6757   0.3095   0.9546   0
1199.022   0.7567   0.3159   0.9543   0
1199.082   0.7570   0.3131   0.9540   0
1199.141   0.7846   0.3163   0.9537   0
1199.201   0.8110   0.3184   0.9534   0
1199.261   0.7027   0.3112   0.9530   0
1199.321   0.4307   0.2884   0.9527   0
1199.381   0.6728   0.3078   0.9523   0
1199.440   0.4298   0.2881   0.9520   0
1199.500   0.5912   0.3015   0.9517   0
1199.560   0.2398   0.2717   0.9513   0
1199.620   0.2393   0.2718   0.9510   0
1199.680   0.2392   0.2712   0.9506   0
1199.740   0.3197   0.2783   0.9502   0
1199.799   0.2924   0.2755   0.9499   0
1199.859   0.5609   0.2983   0.9495   0
1199.919   0.3993   0.2853   0.9491   0
1199.979   0.4530   0.2894   0.9488   0
1200.039   0.4794   0.2903   0.9484   0
1200.098   0.5330   0.2943   0.9480   0
1200.158   0.3982   0.2844   0.9476   0
1200.218   0.3447   0.2795   0.9472   0
1200.278   0.3445   0.2797   0.9468   0
1200.338   0.2105   0.2672   0.9464   0
1200.398   0.2101   0.2672   0.9460   0
1200.457   0.3436   0.2792   0.9456   0
1200.517   0.5307   0.2950   0.9452   0
1200.577   0.2111   0.2666   0.9448   0
1200.637   0.1842   0.2639   0.9444   0
1200.697   0.1836   0.2641   0.9439   0
1200.756   0.1570   0.2617   0.9435   0
1200.816   0.1829   0.2637   0.9431   0
1200.876   0.3140   0.2755   0.9426   0
1200.936   0.0747   0.2533   0.9422   0
1200.996   0.0483   0.2505   0.9417   0
1201.056   0.3144   0.2753   0.9412   0
1201.115   0.2084   0.2652   0.9408   0
1201.175   0.1820   0.2632   0.9403   0
1201.235   0.1551   0.2602   0.9398   0
1201.295   0.1016   0.2548   0.9393   0
1201.355   0.2081   0.2650   0.9389   0
1201.414   0.1551   0.2601   0.9384   0
1201.474   0.1020   0.2545   0.9379   0
1201.534   0.1808   0.2624   0.9374   0
1201.594   0.3658   0.2781   0.9368   0
1201.654   0.1534   0.2595   0.9363   0
1201.714   0.3377   0.2758   0.9358   0
1201.773   0.2313   0.2664   0.9353   0
1201.833   0.1530   0.2593   0.9347   0
1201.893   0.2413   0.2685   0.9342   0
1201.953   0.2268   0.2685   0.9336   0
1202.013   0.1413   0.2603   0.9331   0
1202.073   0.1374   0.2594   0.9325   0
1202.132   0.2524   0.2706   0.9319   0
1202.192   0.2795   0.2728   0.9314   0
1202.252   0.1971   0.2651   0.9308   0
1202.312   0.2260   0.2672   0.9302   0
1202.372   0.2135   0.2649   0.9296   0
1202.431   0.1282   0.2562   0.9290   0
1202.491   0.1800   0.2605   0.9283   0
1202.551   0.1523   0.2576   0.9277   0
1202.611   0.2050   0.2625   0.9271   0
1202.671   0.1798   0.2599   0.9264   0
1202.730   0.1802   0.2598   0.9258   0
1202.790   0.0761   0.2498   0.9251   0
1202.850   0.0767   0.2497   0.9245   0
1202.910   0.0769   0.2496   0.9238   0
1202.970   0.2074   0.2619   0.9231   0
1203.030   0.1815   0.2597   0.9224   0
1203.089   0.2601   0.2667   0.9217   0
1203.149   0.2863   0.2685   0.9210   0
1203.209   0.2600   0.2658   0.9203   0
1203.269   0.3903   0.2774   0.9195   0
1203.329   0.2597   0.2666   0.9188   0
1203.389   0.4683   0.2834   0.9180   0
1203.448   0.2334   0.2631   0.9173   0
1203.508   0.3636   0.2746   0.9165   0
1203.568   0.4414   0.2822   0.9157   0
1203.628   0.2063   0.2608   0.9149   0
1203.688   0.2314   0.2630   0.9141   0
1203.747   0.1784   0.2581   0.9133   0
1203.807   0.4382   0.2808   0.9125   0
1203.867   0.2558   0.2645   0.9116   0
1203.927   0.2824   0.2673   0.9108   0
1203.987   0.1778   0.2581   0.9099   0
1204.047   0.1777   0.2576   0.9090   0
1204.106   0.3326   0.2711   0.9081   0
1204.166   0.4094   0.2780   0.9072   0
1204.226   0.3569   0.2731   0.9063   0
1204.286   0.3305   0.2705   0.9054   0
1204.346   0.3300   0.2706   0.9044   0
1204.406   0.3299   0.2716   0.9035   0
1204.465   0.3549   0.2727   0.9025   0
1204.525   0.3279   0.2702   0.9015   0
1204.585   0.3277   0.2706   0.9005   0
1204.645   0.5099   0.2853   0.8995   0
1204.705   0.3550   0.2723   0.8985   0
1204.764   0.3040   0.2682   0.8974   0
1204.824   0.3295   0.2701   0.8964   0
1204.884   0.4835   0.2827   0.8953   0
1204.944   0.2760   0.2655   0.8942   0
1205.004   0.4567   0.2803   0.8930   0
1205.063   0.2247   0.2606   0.8919   0
1205.123   0.4053   0.2757   0.8908   0
1205.183   0.3031   0.2669   0.8896   0
1205.243   0.5585   0.2899   0.8884   0
1205.303   0.5381   0.2903   0.8872   0
1205.363   0.6155   0.2961   0.8860   0
1205.422   0.2346   0.2628   0.8848   0
1205.482   0.3659   0.2731   0.8835   0
1205.542   0.2369   0.2626   0.8822   0
1205.602   0.5868   0.2925   0.8809   0
1205.662   0.4727   0.2620   0.8796   0
1205.722   0.4406   0.2792   0.8782   0
1205.781   0.3308   0.2690   0.8769   0
1205.841   0.2503   0.2624   0.8755   0
1205.901   0.3792   0.2720   0.8740   0
1205.961   0.1994   0.2576   0.8726   0
1206.021   0.1735   0.2548   0.8711   0
1206.080   0.0957   0.2475   0.8696   0
1206.140   0.1466   0.2523   0.8681   0
1206.200   0.0696   0.2447   0.8666   0
1206.260   0.1223   0.2499   0.8650   0
1206.320   0.0716   0.2448   0.8634   0
1206.380   0.0463   0.2423   0.8618   0
1206.439   0.0206   0.2396   0.8602   0
1206.499   0.0463   0.2421   0.8585   0
1206.559   -0.0050   0.2369   0.8568   0
1206.619   -0.0055   0.2368   0.8550   0
1206.679   -0.0055   0.2367   0.8532   0
1206.738   -0.0055   0.2367   0.8515   0
1206.798   -0.0058   0.2366   0.8496   0
1206.858   -0.0056   0.2369   0.8477   0
1206.918   0.0765   0.2460   0.8458   0
1206.978   -0.0048   0.2375   0.8439   0
1207.038   0.0223   0.2400   0.8419   0
1207.097   0.0494   0.2424   0.8399   0
1207.157   0.0229   0.2397   0.8379   0
1207.217   0.0226   0.2400   0.8358   0
1207.277   0.0215   0.2394   0.8337   0
1207.337   -0.0050   0.2364   0.8315   0
1207.396   0.0214   0.2388   0.8293   0
1207.456   0.0209   0.2386   0.8271   0
1207.516   -0.0050   0.2359   0.8248   0
1207.576   0.0207   0.2384   0.8224   0
1207.636   -0.0050   0.2358   0.8200   0
1207.696   -0.0046   0.2358   0.8176   0
1207.755   -0.0056   0.2357   0.8152   0
1207.815   0.0200   0.2382   0.8126   0
1207.875   -0.0059   0.2356   0.8101   0
1207.935   -0.0070   0.2355   0.8074   0
1207.995   0.0190   0.2381   0.8048   0
1208.054   0.0188   0.2380   0.8021   0
1208.114   -0.0067   0.2354   0.7993   0
1208.174   0.0447   0.2404   0.7964   0
1208.234   -0.0054   0.2353   0.7935   0
1208.294   0.0206   0.2378   0.7905   0
1208.354   -0.0055   0.2352   0.7875   0
1208.413   -0.0066   0.2351   0.7845   0
1208.473   0.0185   0.2377   0.7813   0
1208.533   -0.0071   0.2350   0.7781   0
1208.593   0.0438   0.2401   0.7748   0
1208.653   0.0187   0.2375   0.7715   0
1208.713   0.0698   0.2425   0.7680   0
1208.772   0.0701   0.2426   0.7646   0
1208.832   0.0447   0.2400   0.7610   0
1208.892   0.1214   0.2472   0.7573   0
1208.952   0.2489   0.2586   0.7536   0
1209.012   0.0970   0.2448   0.7498   0
1209.071   0.1468   0.2496   0.7459   0
1209.131   0.2483   0.2592   0.7420   0
1209.191   0.5017   0.2806   0.7379   0
1209.251   0.2480   0.2588   0.7337   0
1209.311   0.2982   0.2628   0.7295   0
1209.370   0.2226   0.2566   0.7252   0
1209.430   0.4515   0.2746   0.7207   0
1209.490   0.4265   0.2732   0.7162   0
1209.550   0.3248   0.2648   0.7115   0
1209.610   0.3740   0.2694   0.7067   0
1209.670   0.4998   0.2795   0.7019   0
1209.729   0.5002   0.2791   0.6970   0
1209.789   0.5508   0.2830   0.6919   0
1209.849   0.3233   0.2647   0.6866   0
1209.909   0.3232   0.2649   0.6813   0
1209.969   0.3738   0.2689   0.6758   0
1210.029   0.6269   0.2883   0.6702   0
1210.088   0.2985   0.2621   0.6646   0
1210.148   0.4246   0.2724   0.6587   0
1210.208   0.4245   0.2727   0.6527   0
1210.268   0.3257   0.2645   0.6466   0
1210.328   0.4479   0.2773   0.6403   0
1210.387   0.4740   0.2821   0.6339   0
1210.447   0.3863   0.2739   0.6273   0
1210.507   0.6027   0.2915   0.6206   0
1210.567   0.3795   0.2713   0.6136   0
1210.627   0.3632   0.2718   0.6066   0
1210.687   0.4175   0.2748   0.5993   0
1210.746   0.3197   0.2659   0.5920   0
1210.806   0.3331   0.2650   0.5844   0
1210.866   0.3255   0.2633   0.5766   1
1210.926   0.5735   0.2839   0.5686   1
1210.986   0.3970   0.2701   0.5604   1
1211.046   0.5979   0.2851   0.5521   1
1211.105   0.4727   0.2758   0.5436   1
1211.165   0.4976   0.2784   0.5349   1
1211.225   0.4468   0.2735   0.5259   1
1211.285   0.4705   0.2761   0.5167   1
1211.345   0.4190   0.2702   0.5073   1
1211.404   0.4181   0.2702   0.4978   1
1211.464   0.3422   0.2648   0.4880   1
1211.524   0.4404   0.2729   0.4779   1
1211.584   0.1897   0.2510   0.4676   1
1211.644   0.3149   0.2623   0.4571   1
1211.703   0.3149   0.2616   0.4465   1
1211.763   0.2151   0.2531   0.4355   1
1211.823   0.3154   0.2616   0.4243   1
1211.883   0.4395   0.2710   0.4129   1
1211.943   0.2655   0.2576   0.4012   1
1212.003   0.1154   0.2437   0.3893   1
1212.062   0.2405   0.2551   0.3774   1
1212.122   0.2655   0.2572   0.3650   1
1212.182   0.3151   0.2612   0.3525   1
1212.242   0.1654   0.2479   0.3397   1
1212.302   0.0658   0.2385   0.3268   1
1212.362   0.1657   0.2480   0.3137   1
1212.421   0.2666   0.2567   0.3006   1
1212.481   0.1670   0.2477   0.2872   1
1212.541   0.2176   0.2523   0.2736   1
1212.601   0.1666   0.2475   0.2599   1
1212.661   0.1414   0.2453   0.2461   1
1212.720   0.1170   0.2429   0.2325   1
1212.780   0.0915   0.2402   0.2186   1
1212.840   0.1656   0.2474   0.2048   1
1212.900   0.0914   0.2403   0.1910   1
1212.960   0.0908   0.2402   0.1772   1
1213.020   0.0900   0.2400   0.1636   1
1213.079   0.0389   0.2351   0.1504   1
1213.139   0.1379   0.2443   0.1373   1
1213.199   0.0368   0.2350   0.1244   1
1213.259   0.0613   0.2373   0.1119   1
1213.319   0.0601   0.2372   0.0998   1
1213.378   0.0587   0.2371   0.0884   1
1213.438   0.0825   0.2393   0.0773   1
1213.498   0.0573   0.2369   0.0669   1
1213.558   0.1071   0.2415   0.0572   1
1213.618   0.0330   0.2344   0.0481   1
1213.678   0.0871   0.2405   0.0399   1
1213.737   0.0862   0.2406   0.0326   1
1213.797   0.0080   0.2328   0.0261   1
1213.857   0.1375   0.2454   0.0204   1
1213.917   0.0594   0.2383   0.0155   1
1213.977   0.0861   0.2407   0.0115   1
1214.036   0.0583   0.2371   0.0082   1
1214.096   0.2043   0.2501   0.0056   1
1214.156   0.0546   0.2359   0.0035   1
1214.216   -0.0181   0.2289   0.0020   0
1214.276   0.1049   0.2409   0.0009   0
1214.336   0.1537   0.2450   0.0005   0
1214.395   0.1270   0.2426   0.0003   0
1214.455   0.1999   0.2493   0.0002   0
1214.515   0.3211   0.2591   0.0001   0
1214.575   0.2940   0.2572   0.0001   0
1214.635   0.5839   0.2796   0.0001   0
1214.694   2.1559   0.3709   0.0001   0
1214.754   7.9377   0.5745   0.0000   0
1214.814   22.0134   0.8638   0.0000   0
1214.874   41.8656   1.1415   0.0000   0
1214.934   60.5915   1.3467   0.0000   0
1214.994   89.4659   1.6086   0.0000   0
1215.053   115.1084   1.8072   0.0000   0
1215.113   162.3292   2.1221   0.0000   0
1215.173   199.0797   2.3361   0.0000   0
1215.233   224.9097   2.4747   0.0000   0
1215.293   255.2844   2.6638   0.0000   0
1215.353   280.9785   2.8174   0.0000   0
1215.412   299.5192   2.8994   0.0000   0
1215.472   316.1554   2.9771   0.0000   0
1215.532   314.3125   2.9704   0.0000   0
1215.592   316.9522   2.9977   0.0000   0
1215.652   306.9066   2.9361   0.0000   0
1215.711   298.6690   2.8715   0.0000   0
1215.771   278.8658   2.7392   0.0000   0
1215.831   264.5875   2.6698   0.0000   0
1215.891   225.1147   2.4718   0.0000   0
1215.951   194.5613   2.3065   0.0000   0
1216.010   161.9228   2.1147   0.0000   0
1216.070   122.6122   1.8562   0.0000   0
1216.130   87.4634   1.5870   0.0000   0
1216.190   67.7056   1.4117   0.0000   0
1216.250   41.9444   1.1381   0.0000   0
1216.310   25.4568   0.9151   0.0000   0
1216.370   10.2026   0.6278   0.0000   0
1216.429   1.8916   0.3549   0.0000   0
1216.489   0.4841   0.2695   0.0000   0
1216.549   0.4428   0.2659   0.0000   0
1216.609   0.3506   0.2593   0.0000   0
1216.669   0.2558   0.2518   0.0000   0
1216.728   0.2109   0.2479   0.0000   0
1216.788   0.0914   0.2373   0.0000   0
1216.848   0.0932   0.2373   0.0000   0
1216.908   0.1698   0.2439   0.0000   0
1216.968   -0.0003   0.2283   0.0000   0
1217.027   0.0975   0.2374   0.0000   0
1217.087   0.0022   0.2282   0.0000   1
1217.147   0.0302   0.2306   0.0000   1
1217.207   0.1289   0.2218   0.0000   1
1217.267   0.0576   0.2327   0.0000   1
1217.327   0.0084   0.2279   0.0000   1
1217.386   0.0324   0.2304   0.0000   1
1217.446   0.0329   0.2303   0.0001   1
1217.506   0.0573   0.2324   0.0001   1
1217.566   0.0570   0.2324   0.0001   1
1217.626   0.0338   0.2300   0.0001   1
1217.686   -0.0141   0.2252   0.0001   1
1217.745   0.0361   0.2300   0.0002   1
1217.805   0.0361   0.2300   0.0002   1
1217.865   0.0352   0.2298   0.0003   1
1217.925   -0.0128   0.2250   0.0004   1
1217.985   0.0131   0.2274   0.0006   1
1218.044   0.0376   0.2297   0.0010   1
1218.104   -0.0109   0.2248   0.0020   1
1218.164   -0.0108   0.2248   0.0039   1
1218.224   0.0873   0.2342   0.0074   1
1218.284   0.0876   0.2344   0.0127   1
1218.344   0.0881   0.2342   0.0199   1
1218.403   0.0159   0.2270   0.0288   1
1218.463   0.0392   0.2293   0.0396   1
1218.523   0.0856   0.2340   0.0519   1
1218.583   0.2314   0.2469   0.0654   1
1218.643   0.1831   0.2430   0.0800   1
1218.702   0.1890   0.2438   0.0951   1
1218.762   0.2785   0.2545   0.1111   1
1218.822   0.1745   0.2444   0.1274   1
1218.882   0.2594   0.2531   0.1440   1
1218.942   0.3083   0.2566   0.1608   1
1219.002   0.1780   0.2452   0.1776   1
1219.061   0.2874   0.2555   0.1941   1
1219.121   0.2754   0.2519   0.2107   1
1219.181   0.3877   0.2602   0.2272   0
1219.241   0.2540   0.2486   0.2435   0
1219.301   0.3264   0.2546   0.2595   0
1219.360   0.2780   0.2505   0.2750   0
1219.420   0.2302   0.2465   0.2905   0
1219.480   0.1346   0.2378   0.3057   0
1219.540   0.2810   0.2506   0.3206   0
1219.600   0.1602   0.2394   0.3351   0
1219.660   0.2573   0.2486   0.3493   0
1219.719   0.1134   0.2353   0.3630   0
1219.779   0.2107   0.2438   0.3765   0
1219.839   0.2120   0.2439   0.3898   0
1219.899   0.3093   0.2533   0.4027   0
1219.959   0.2606   0.2479   0.4153   0
1220.018   0.2602   0.2482   0.4274   0
1220.078   0.2365   0.2455   0.4393   0
1220.138   0.1406   0.2370   0.4510   0
1220.198   0.2378   0.2461   0.4623   0
1220.258   0.2612   0.2483   0.4734   0
1220.318   0.3579   0.2564   0.4842   0
1220.377   0.3588   0.2561   0.4945   0
1220.437   0.2371   0.2456   0.5047   0
1220.497   0.5278   0.2684   0.5146   0
1220.557   0.3107   0.2517   0.5243   0
1220.617   0.3830   0.2587   0.5338   0
1220.677   0.3336   0.2535   0.5430   0
1220.736   0.3821   0.2579   0.5518   0
1220.796   0.3820   0.2582   0.5605   0
1220.856   0.2601   0.2472   0.5690   0
1220.916   0.4286   0.2614   0.5773   0
1220.976   0.5737   0.2731   0.5853   0
1221.035   0.3081   0.2516   0.5930   0
1221.095   0.4040   0.2598   0.6007   0
1221.155   0.4272   0.2614   0.6082   0
1221.215   0.3550   0.2553   0.6154   0
1221.275   0.3551   0.2548   0.6225   0
1221.334   0.4269   0.2607   0.6293   0
1221.394   0.4746   0.2645   0.6360   0
1221.454   0.4261   0.2611   0.6426   0
1221.514   0.3291   0.2526   0.6490   0
1221.574   0.4244   0.2607   0.6552   0
1221.634   0.5209   0.2680   0.6613   0
1221.693   0.5933   0.2737   0.6672   0
1221.753   0.4002   0.2583   0.6730   0
1221.813   0.5450   0.2687   0.6786   0
1221.873   0.4494   0.2617   0.6841   0
1221.933   0.4498   0.2616   0.6895   0
1221.993   0.4309   0.2608   0.6948   0
1222.052   0.3674   0.2571   0.6998   0
1222.112   0.5987   0.2761   0.7048   0
1222.172   0.2982   0.2516   0.7097   0
1222.232   0.5941   0.2747   0.7145   0
1222.292   0.4449   0.2637   0.7192   0
1222.351   0.5493   0.2727   0.7237   0
1222.411   0.7171   0.2853   0.7281   0
1222.471   0.2865   0.2483   0.7325   0
1222.531   0.4495   0.2612   0.7367   0
1222.591   0.5439   0.2678   0.7409   0
1222.651   0.6155   0.2736   0.7450   0
1222.710   0.5677   0.2704   0.7489   0
1222.770   0.4476   0.2609   0.7528   0
1222.830   0.4223   0.2583   0.7566   0
1222.890   0.5416   0.2682   0.7603   0
1222.950   0.6377   0.2754   0.7639   0
1223.010   0.4704   0.2622   0.7675   0
1223.069   0.4222   0.2588   0.7709   0
1223.129   0.6365   0.2752   0.7743   0
1223.189   0.4690   0.2622   0.7776   0
1223.249   0.5168   0.2656   0.7809   0
1223.309   0.5150   0.2656   0.7841   0
1223.368   0.7762   0.2841   0.7872   0
1223.428   0.5855   0.2715   0.7902   0
1223.488   0.4660   0.2615   0.7932   0
1223.548   0.4183   0.2581   0.7962   0
1223.608   0.5137   0.2648   0.7991   0
1223.667   0.5229   0.2671   0.8018   0
1223.727   0.7110   0.2827   0.8046   0
1223.787   0.5941   0.2748   0.8073   0
1223.847   0.6195   0.2761   0.8100   0
1223.907   0.6606   0.2784   0.8126   0
1223.967   0.7139   0.2826   0.8151   0
1224.026   0.6904   0.2817   0.8176   0
1224.086   0.6603   0.2785   0.8200   0
1224.146   0.6155   0.2718   0.8224   0
1224.206   0.5638   0.2682   0.8248   0
1224.266   0.5405   0.2662   0.8271   0
1224.326   0.5650   0.2687   0.8294   0
1224.385   0.6129   0.2725   0.8316   0
1224.445   0.6133   0.2714   0.8337   0
1224.505   0.6137   0.2717   0.8359   0
1224.565   0.6379   0.2737   0.8380   0
1224.625   0.7562   0.2821   0.8400   0
1224.684   0.4711   0.2616   0.8420   0
1224.744   0.5421   0.2669   0.8440   0
1224.804   0.6119   0.2721   0.8460   0
1224.864   0.5873   0.2700   0.8479   0
1224.924   0.6807   0.2767   0.8498   0
1224.984   0.6094   0.2711   0.8516   0
1225.043   0.7744   0.2823   0.8534   0
1225.103   0.8211   0.2858   0.8552   0
1225.163   0.7261   0.2790   0.8569   0
1225.223   0.8912   0.2911   0.8587   0
1225.283   0.5119   0.2635   0.8603   0
1225.342   0.6766   0.2759   0.8620   0
1225.402   0.7706   0.2825   0.8636   0
1225.462   0.7462   0.2803   0.8652   0
1225.522   0.7925   0.2835   0.8668   0
1225.582   0.7677   0.2812   0.8683   0
1225.642   0.8387   0.2855   0.8699   0
1225.701   0.6506   0.2728   0.8713   0
1225.761   0.9349   0.2931   0.8728   0
1225.821   0.8876   0.2885   0.8742   0
1225.881   0.6505   0.2725   0.8757   0
1225.941   0.8398   0.2855   0.8771   0
1226.000   0.6278   0.2719   0.8784   0
1226.060   0.7919   0.2811   0.8798   0
1226.120   0.7434   0.2792   0.8811   0
1226.180   0.7433   0.2790   0.8824   0
1226.240   1.1193   0.3021   0.8837   0
1226.300   1.0731   0.3001   0.8850   0
1226.359   0.9109   0.2902   0.8862   0
1226.419   0.9582   0.2943   0.8874   0
1226.479   0.7460   0.2786   0.8886   0
1226.539   0.6764   0.2743   0.8898   0
1226.599   0.7957   0.2821   0.8910   0
1226.658   0.5133   0.2610   0.8921   0
1226.718   0.6779   0.2739   0.8933   0
1226.778   0.9592   0.2929   0.8944   0
1226.838   1.0752   0.3014   0.8955   0
1226.898   0.8399   0.2851   0.8966   0
1226.958   0.7696   0.2804   0.8976   0
1227.017   0.9089   0.2897   0.8987   0
1227.077   0.6202   0.2707   0.8997   0
1227.137   0.9210   0.2947   0.9007   0
1227.197   0.8792   0.2945   0.9017   0
1227.257   0.6809   0.2812   0.9027   0
1227.317   0.5911   0.2716   0.9037   0
1227.376   0.8670   0.2921   0.9047   0
1227.436   1.0296   0.3036   0.9056   0
1227.496   0.7145   0.2809   0.9065   0
1227.556   0.8075   0.2846   0.9075   0
1227.616   0.7224   0.2764   0.9084   0
1227.675   0.8338   0.2836   0.9092   0
1227.735   0.5296   0.2621   0.9101   0
1227.795   0.7874   0.2797   0.9110   0
1227.855   0.4841   0.2578   0.9118   0
1227.915   0.6011   0.2660   0.9127   0
1227.974   0.6476   0.2697   0.9135   0
1228.034   0.5777   0.2650   0.9143   0
1228.094   0.7184   0.2752   0.9151   0
1228.154   0.4855   0.2581   0.9159   0
1228.214   0.6020   0.2658   0.9167   0
1228.274   0.5549   0.2631   0.9175   0
1228.333   0.7395   0.2755   0.9182   0
1228.393   0.5069   0.2590   0.9190   0
1228.453   0.6922   0.2723   0.9197   0
1228.513   0.6463   0.2685   0.9205   0
1228.573   0.9014   0.2870   0.9212   0
1228.633   0.3428   0.2453   0.9219   0
1228.692   0.9232   0.2874   0.9226   0
1228.752   0.4332   0.2338   0.9233   0
1228.812   0.8784   0.2849   0.9240   0
1228.872   0.6461   0.2681   0.9247   0
1228.932   0.6220   0.2663   0.9253   0
1228.991   0.8527   0.2836   0.9260   0
1229.051   0.7128   0.2734   0.9266   0
1229.111   0.7817   0.2775   0.9273   0
1229.171   0.5497   0.2609   0.9279   0
1229.231   0.7577   0.2764   0.9285   0
1229.291   0.6419   0.2679   0.9292   0
1229.350   0.8967   0.2859   0.9298   0
1229.410   0.7812   0.2776   0.9304   0
1229.470   0.6429   0.2678   0.9309   0
1229.530   0.5272   0.2581   0.9315   0
1229.590   0.6894   0.2702   0.9321   0
1229.650   0.5962   0.2632   0.9327   0
1229.709   0.7575   0.2748   0.9332   0
1229.769   0.6426   0.2668   0.9338   0
1229.829   0.6887   0.2713   0.9344   0
1229.889   0.6660   0.2688   0.9349   0
1229.949   0.6877   0.2712   0.9354   0
1230.008   0.7343   0.2727   0.9360   0
1230.068   0.6418   0.2668   0.9365   0
1230.128   0.5728   0.2603   0.9370   0
1230.188   0.7337   0.2728   0.9375   0
1230.248   1.3092   0.3095   0.9380   0
1230.307   0.7336   0.2725   0.9385   0
1230.367   0.7262   0.2734   0.9390   0
1230.427   0.6913   0.2728   0.9395   0
1230.487   0.8991   0.2871   0.9400   0
1230.547   0.6093   0.2668   0.9405   0
1230.607   0.7480   0.2771   0.9409   0
1230.667   0.8426   0.2834   0.9414   0
1230.726   0.5964   0.2637   0.9419   0
1230.786   0.6239   0.2676   0.9423   0
1230.846   0.6093   0.2634   0.9428   0
1230.906   0.8696   0.2810   0.9432   0
1230.966   0.4098   0.2472   0.9436   0
1231.025   0.7076   0.2699   0.9441   0
1231.085   0.7535   0.2723   0.9445   0
1231.145   0.4094   0.2466   0.9449   0
1231.205   0.3174   0.2392   0.9453   0
1231.265   0.6387   0.2653   0.9458   0
1231.324   0.3861   0.2449   0.9462   0
1231.384   0.3627   0.2429   0.9466   0
1231.444   0.4526   0.2503   0.9470   0
1231.504   0.6124   0.2616   0.9474   0
1231.564   0.6345   0.2635   0.9478   0
1231.624   0.4512   0.2497   0.9481   0
1231.683   0.4519   0.2498   0.9485   0
1231.743   0.4986   0.2529   0.9489   0
1231.803   0.7261   0.2700   0.9493   0
1231.863   0.5431   0.2566   0.9496   0
1231.923   0.2694   0.2336   0.9500   0
1231.983   0.5227   0.2547   0.9504   0
1232.042   0.4189   0.2479   0.9507   0
1232.102   0.3549   0.2429   0.9511   0
1232.162   0.4055   0.2478   0.9514   0
1232.222   0.3562   0.2437   0.9518   0
1232.282   0.3071   0.2379   0.9521   0
1232.341   0.5457   0.2579   0.9525   0
1232.401   0.5470   0.2572   0.9528   0
1232.461   0.4471   0.2505   0.9531   0
1232.521   0.4320   0.2478   0.9535   0
1232.581   0.4952   0.2516   0.9538   0
1232.641   0.4035   0.2435   0.9541   0
1232.700   0.4698   0.2495   0.9544   0
1232.760   0.5372   0.2537   0.9548   0
1232.820   0.4917   0.2503   0.9551   0
1232.880   0.5145   0.2527   0.9554   0
1232.940   0.4696   0.2493   0.9557   0
1232.999   0.4472   0.2468   0.9560   0
1233.059   0.7412   0.2675   0.9563   0
1233.119   0.4238   0.2456   0.9566   0
1233.179   0.4465   0.2465   0.9569   0
1233.239   0.5595   0.2553   0.9572   0
1233.299   0.4699   0.2479   0.9575   0
1233.358   0.6511   0.2622   0.9577   0
1233.418   0.5612   0.2559   0.9580   0
1233.478   0.6516   0.2617   0.9583   0
1233.538   0.6732   0.2631   0.9586   0
1233.598   0.6056   0.2586   0.9589   0
1233.657   0.6060   0.2578   0.9591   0
1233.717   0.7417   0.2690   0.9594   0
1233.777   0.8761   0.2759   0.9597   0
1233.837   0.7839   0.2703   0.9599   0
1233.897   0.7836   0.2709   0.9602   0
1233.957   0.6032   0.2572   0.9604   0
1234.016   0.7157   0.2650   0.9607   0
1234.076   0.6929   0.2653   0.9609   0
1234.136   0.6031   0.2572   0.9612   0
1234.196   0.5355   0.2523   0.9614   0
1234.256   0.7829   0.2682   0.9617   0
1234.315   0.6016   0.2561   0.9619   0
1234.375   0.5789   0.2548   0.9622   0
1234.435   0.7358   0.2663   0.9624   0
1234.495   0.8703   0.2752   0.9627   0
1234.555   0.5117   0.2493   0.9629   0
1234.615   0.5333   0.2514   0.9631   0
1234.674   0.6447   0.2595   0.9634   0
1234.734   0.6225   0.2571   0.9636   0
1234.794   0.5790   0.2541   0.9638   0
1234.854   0.6692   0.2609   0.9640   0
1234.914   0.6462   0.2587   0.9643   0
1234.974   0.5553   0.2523   0.9645   0
1235.033   0.7566   0.2671   0.9647   0
1235.093   0.6884   0.2615   0.9649   0
1235.153   0.7319   0.2649   0.9651   0
1235.213   0.4189   0.2413   0.9653   0
1235.273   0.6202   0.2568   0.9655   0
1235.332   0.7996   0.2692   0.9658   0
1235.392   0.5317   0.2495   0.9660   0
1235.452   0.7033   0.2642   0.9662   0
1235.512   0.5966   0.2556   0.9664   0
1235.572   0.2336   0.2266   0.9666   0
1235.631   0.6516   0.2659   0.9668   0
1235.691   0.4963   0.2521   0.9670   0
1235.751   0.5852   0.2579   0.9672   0
1235.811   0.5127   0.2514   0.9674   0
1235.871   0.5580   0.2558   0.9675   0
1235.931   0.4435   0.2448   0.9677   0
1235.990   0.4220   0.2407   0.9679   0
1236.050   0.3300   0.2318   0.9681   0
1236.110   0.2395   0.2249   0.9683   0
1236.170   0.5719   0.2520   0.9685   0
1236.230   0.5493   0.2499   0.9687   0
1236.290   0.4159   0.2392   0.9688   0
1236.349   0.4158   0.2391   0.9690   0
1236.409   0.3934   0.2374   0.9692   0
1236.469   0.2399   0.2236   0.9694   0
1236.529   0.4847   0.2445   0.9696   0
1236.589   0.3513   0.2340   0.9697   0
1236.648   0.6842   0.2584   0.9699   0
1236.708   0.5733   0.2521   0.9701   0
1236.768   0.5056   0.2440   0.9702   0
1236.828   0.5506   0.2487   0.9704   0
1236.888   0.3949   0.2362   0.9706   0
1236.948   0.4178   0.2381   0.9707   0
1237.007   0.5728   0.2505   0.9709   0
1237.067   0.3730   0.2347   0.9711   0
1237.127   0.7946   0.2657   0.9712   0
1237.187   0.6607   0.2551   0.9714   0
1237.247   0.5718   0.2494   0.9715   0
1237.307   0.4387   0.2392   0.9717   0
1237.366   0.7693   0.2644   0.9718   0
1237.426   0.5927   0.2506   0.9720   0
1237.486   0.6369   0.2540   0.9722   0
1237.546   0.5706   0.2497   0.9723   0
1237.606   0.4600   0.2410   0.9725   0
1237.665   0.3932   0.2348   0.9726   0
1237.725   0.4816   0.2422   0.9728   0
1237.785   0.5260   0.2455   0.9729   0
1237.845   0.4156   0.2369   0.9730   0
1237.905   0.3713   0.2325   0.9732   0
1237.964   0.5687   0.2484   0.9733   0
1238.024   0.6562   0.2540   0.9735   0
1238.084   0.6558   0.2550   0.9736   0
1238.144   0.5018   0.2436   0.9738   0
1238.204   0.3039   0.2269   0.9739   0
1238.264   0.3256   0.2280   0.9740   0
1238.323   0.3700   0.2321   0.9742   0
1238.383   0.5234   0.2452   0.9743   0
1238.443   0.3046   0.2267   0.9744   0
1238.503   0.5896   0.2486   0.9746   0
1238.563   0.5016   0.2426   0.9747   0
1238.623   0.3700   0.2315   0.9748   0
1238.682   0.3922   0.2340   0.9750   0
1238.742   0.2818   0.2239   0.9751   0
1238.802   0.4337   0.2359   0.9752   0
1238.862   0.5133   0.2442   0.9754   0
1238.922   0.4581   0.2411   0.9755   0
1238.981   0.6217   0.2539   0.9756   0
1239.041   0.3394   0.2302   0.9757   0
1239.101   0.3618   0.2322   0.9759   0
1239.161   0.4060   0.2354   0.9760   0
1239.221   0.4904   0.2412   0.9761   0
1239.281   0.4121   0.2344   0.9762   0
1239.340   0.3449   0.2291   0.9763   0
1239.400   0.4109   0.2332   0.9765   0
1239.460   0.4101   0.2339   0.9766   0
1239.520   0.4313   0.2359   0.9767   0
1239.580   0.2779   0.2220   0.9768   0
1239.639   0.4294   0.2348   0.9769   0
1239.699   0.3856   0.2316   0.9770   0
1239.759   0.1907   0.2145   0.9771   0
1239.819   0.6053   0.2490   0.9773   0
1239.879   0.2362   0.2183   0.9774   0
1239.939   0.1928   0.2144   0.9775   0
1239.998   0.1929   0.2145   0.9776   0
1240.058   0.4317   0.2347   0.9777   0
1240.118   0.2574   0.2196   0.9778   0
1240.178   0.3439   0.2276   0.9779   0
1240.238   0.4090   0.2321   0.9780   0
1240.297   0.2356   0.2167   0.9781   0
1240.357   0.2943   0.2063   0.9782   0
1240.417   0.2793   0.2211   0.9783   0
1240.477   0.3064   0.2237   0.9785   0
1240.537   0.4771   0.2381   0.9786   0
1240.597   0.2742   0.2228   0.9787   0
1240.656   0.3631   0.2302   0.9788   0
1240.716   0.3818   0.2313   0.9789   0
1240.776   0.2928   0.2230   0.9790   0
1240.836   0.2668   0.2199   0.9791   0
1240.896   0.4157   0.2315   0.9792   0
1240.955   0.3213   0.2236   0.9793   0
1241.015   0.4298   0.2327   0.9794   0
1241.075   0.4730   0.2362   0.9795   0
1241.135   0.4517   0.2349   0.9795   0
1241.195   0.4933   0.2378   0.9796   0
1241.255   0.4931   0.2381   0.9797   0
1241.314   0.6433   0.2489   0.9798   0
1241.374   0.4707   0.2360   0.9799   0
1241.434   0.6853   0.2516   0.9800   0
1241.494   0.7706   0.2582   0.9801   0
1241.554   0.7911   0.2591   0.9802   0
1241.614   0.6403   0.2482   0.9803   0
1241.673   0.8748   0.2638   0.9804   0
1241.733   0.7032   0.2530   0.9805   0
1241.793   0.7667   0.2566   0.9806   0
1241.853   0.8304   0.2609   0.9807   0
1241.913   0.7241   0.2530   0.9807   0
1241.972   0.6387   0.2476   0.9808   0
1242.032   0.6170   0.2459   0.9809   0
1242.092   0.6595   0.2496   0.9810   0
1242.152   0.6378   0.2463   0.9811   0
1242.212   0.8523   0.2621   0.9812   0
1242.271   0.7459   0.2540   0.9813   0
1242.331   0.6390   0.2460   0.9813   0
1242.391   0.5730   0.2418   0.9814   0
1242.451   0.7014   0.2518   0.9815   0
1242.511   0.8511   0.2608   0.9816   0
1242.571   0.7465   0.2542   0.9817   0
1242.630   0.8102   0.2586   0.9817   0
1242.690   0.5322   0.2391   0.9818   0
1242.750   0.7239   0.2531   0.9819   0
1242.810   0.7218   0.2518   0.9820   0
1242.870   0.6781   0.2489   0.9821   0
1242.930   0.7414   0.2528   0.9821   0
1242.989   0.8045   0.2582   0.9822   0
1243.049   0.4212   0.2289   0.9823   0
1243.109   0.7606   0.2550   0.9824   0
1243.169   0.6337   0.2451   0.9825   0
1243.229   0.6999   0.2513   0.9825   0
1243.288   0.5921   0.2424   0.9826   0
1243.348   0.8467   0.2592   0.9827   0
1243.408   0.7610   0.2526   0.9828   0
1243.468   0.7396   0.2527   0.9828   0
1243.528   0.8242   0.2586   0.9829   0
1243.588   0.7360   0.2525   0.9830   0
1243.647   0.9241   0.2653   0.9831   0
1243.707   1.0931   0.2756   0.9831   0
1243.767   0.7129   0.2498   0.9832   0
1243.827   0.9670   0.2673   0.9833   0
1243.887   0.7656   0.2540   0.9833   0
1243.947   1.0076   0.2756   0.9834   0
1244.006   0.6845   0.2536   0.9835   0
1244.066   0.7075   0.2558   0.9835   0
1244.126   0.4793   0.2353   0.9836   0
1244.186   0.9117   0.2701   0.9837   0
1244.246   0.8370   0.2648   0.9838   0
1244.305   0.8560   0.2634   0.9838   0
1244.365   0.7225   0.2512   0.9839   0
1244.425   0.4587   0.2303   0.9840   0
1244.485   0.9642   0.2655   0.9840   0
1244.545   0.6491   0.2447   0.9841   0
1244.604   0.7338   0.2499   0.9842   0
1244.664   0.6912   0.2473   0.9842   0
1244.724   0.7115   0.2487   0.9843   0
1244.784   0.5632   0.2384   0.9843   0
1244.844   0.7317   0.2503   0.9844   0
1244.904   1.0261   0.2699   0.9845   0
1244.963   0.8994   0.2621   0.9845   1
1245.023   1.0460   0.2705   0.9846   1
1245.083   0.9819   0.2653   0.9847   1
1245.143   0.8138   0.2551   0.9847   1
1245.203   1.0461   0.2690   0.9848   1
1245.263   0.8748   0.2597   0.9849   1
1245.322   0.8526   0.2566   0.9849   1
1245.382   1.1879   0.2783   0.9850   1
1245.442   0.9784   0.2654   0.9850   1
1245.502   1.0397   0.2689   0.9851   1
1245.562   1.2493   0.2810   0.9852   1
1245.621   0.8518   0.2574   0.9852   1
1245.681   1.2492   0.2814   0.9853   1
1245.741   0.9357   0.2628   0.9853   1
1245.801   1.2284   0.2808   0.9854   1
1245.861   1.1445   0.2746   0.9854   1
1245.921   1.1030   0.2725   0.9855   1
1245.980   1.1864   0.2772   0.9856   1
1246.040   1.5406   0.2973   0.9856   1
1246.100   1.6021   0.2996   0.9857   1
1246.160   1.5382   0.2961   0.9857   1
1246.220   1.1617   0.2762   0.9858   1
1246.279   1.3059   0.2839   0.9858   1
1246.339   1.2217   0.2785   0.9859   1
1246.399   1.2633   0.2817   0.9859   1
1246.459   1.1176   0.2728   0.9860   1
1246.519   1.1180   0.2726   0.9861   1
1246.579   0.9096   0.2597   0.9861   1
1246.638   1.3246   0.2848   0.9862   1
1246.698   0.9083   0.2587   0.9862   1
1246.758   1.3235   0.2845   0.9863   1
1246.818   1.3231   0.2837   0.9863   1
1246.878   0.9708   0.2636   0.9864   1
1246.938   0.9494   0.2615   0.9864   1
1246.997   1.1144   0.2709   0.9865   1
1247.057   1.1342   0.2724   0.9865   1
1247.117   1.0928   0.2705   0.9866   1
1247.177   1.2309   0.2798   0.9866   1
1247.237   1.0119   0.2680   0.9867   1
1247.296   1.0704   0.2736   0.9867   1
1247.356   1.0257   0.2703   0.9868   1
1247.416   1.0801   0.2719   0.9868   1
1247.476   1.0063   0.2686   0.9869   1
1247.536   0.9372   0.2637   0.9869   1
1247.595   0.7335   0.2477   0.9870   1
1247.655   0.9341   0.2603   0.9870   1
1247.715   0.9253   0.2598   0.9871   1
1247.775   1.2137   0.2772   0.9871   1
1247.835   0.7809   0.2496   0.9872   1
1247.895   0.9875   0.2631   0.9872   1
1247.954   1.0473   0.2669   0.9873   1
1248.014   1.1503   0.2724   0.9873   1
1248.074   0.8196   0.2522   0.9874   1
1248.134   0.9233   0.2584   0.9874   1
1248.194   1.1297   0.2717   0.9875   0
1248.254   0.6754   0.2421   0.9875   0
1248.313   1.0488   0.2656   0.9875   0
1248.373   0.8418   0.2527   0.9876   0
1248.433   0.9657   0.2618   0.9876   0
1248.493   0.8215   0.2521   0.9877   0
1248.553   0.9239   0.2591   0.9877   0
1248.612   0.9250   0.2587   0.9878   0
1248.672   0.7185   0.2451   0.9878   0
1248.732   0.9242   0.2583   0.9879   0
1248.792   0.9227   0.2587   0.9879   0
1248.852   0.7987   0.2525   0.9879   0
1248.911   0.8389   0.2563   0.9880   0
1248.971   0.7605   0.2502   0.9880   0
1249.031   0.7137   0.2474   0.9881   0
1249.091   0.7942   0.2518   0.9881   0
1249.151   0.6285   0.2416   0.9882   0
1249.211   0.5188   0.2329   0.9882   0
1249.271   0.5924   0.2362   0.9882   0
1249.330   0.6349   0.2385   0.9883   0
1249.390   0.5513   0.2326   0.9883   0
1249.450   0.6942   0.2423   0.9884   0
1249.510   0.5297   0.2300   0.9884   0
1249.570   0.5097   0.2284   0.9885   0
1249.629   0.5712   0.2323   0.9885   0
1249.689   0.3857   0.2188   0.9885   0
1249.749   0.5491   0.2317   0.9886   0
1249.809   0.5899   0.2342   0.9886   0
1249.869   0.4863   0.2268   0.9887   0
1249.928   0.5070   0.2282   0.9887   0
1249.988   0.7530   0.2461   0.9887   0
1250.048   0.5888   0.2348   0.9888   0
1250.108   0.5274   0.2304   0.9888   0
1250.168   0.5273   0.2293   0.9889   0
1250.228   0.7732   0.2470   0.9889   0
1250.287   0.6093   0.2357   0.9889   0
1250.347   0.6297   0.2356   0.9890   0
1250.407   0.5487   0.2305   0.9890   0
1250.467   0.6107   0.2362   0.9890   0
1250.527   0.6107   0.2360   0.9891   0
1250.587   0.5292   0.2305   0.9891   0
1250.646   0.5090   0.2284   0.9892   0
1250.706   0.5710   0.2327   0.9892   0
1250.766   0.6535   0.2384   0.9892   0
1250.826   0.3667   0.2163   0.9893   0
1250.886   0.7558   0.2449   0.9893   0
1250.945   0.7755   0.2470   0.9893   0
1251.005   0.7940   0.2467   0.9894   0
1251.065   0.7735   0.2469   0.9894   0
1251.125   0.9571   0.2587   0.9894   0
1251.185   0.9350   0.2564   0.9895   0
1251.245   0.8938   0.2545   0.9895   0
1251.304   0.8531   0.2520   0.9896   0
1251.364   1.0574   0.2653   0.9896   0
1251.424   1.2007   0.2732   0.9896   0
1251.484   1.1395   0.2695   0.9897   0
1251.544   1.0169   0.2626   0.9897   0
1251.603   0.7898   0.2468   0.9897   0
1251.663   0.8096   0.2484   0.9898   0
1251.723   1.1977   0.2732   0.9898   0
1251.783   0.7078   0.2420   0.9898   0
1251.843   0.8099   0.2482   0.9899   0
1251.903   0.8162   0.2298   0.9899   0
1251.962   0.7290   0.2420   0.9899   0
1252.022   0.9335   0.2553   0.9900   0
1252.082   0.7503   0.2431   0.9900   0
1252.142   0.6500   0.2370   0.9900   0
1252.202   0.7525   0.2443   0.9901   0
1252.261   0.7021   0.2419   0.9901   0
1252.321   0.5476   0.2335   0.9901   0
1252.381   0.5852   0.2370   0.9902   0
1252.441   0.5392   0.2344   0.9902   0
1252.501   0.5779   0.2369   0.9902   0
1252.561   0.6076   0.2392   0.9903   0
1252.620   0.4994   0.2315   0.9903   0
1252.680   0.5774   0.2363   0.9903   0
1252.740   0.4405   0.2230   0.9903   0
1252.800   0.4656   0.2239   0.9904   0
1252.860   0.6904   0.2396   0.9904   0
1252.919   0.6704   0.2384   0.9904   0
1252.979   0.7307   0.2423   0.9905   0
1253.039   0.8523   0.2510   0.9905   0
1253.099   0.7296   0.2427   0.9905   0
1253.159   0.9541   0.2568   0.9906   0
1253.219   0.8933   0.2540   0.9906   0
1253.278   0.8126   0.2479   0.9906   0
1253.338   0.4030   0.2180   0.9906   0
1253.398   0.6885   0.2390   0.9907   0
1253.458   0.7090   0.2405   0.9907   0
1253.518   0.8716   0.2518   0.9907   0
1253.578   0.8712   0.2519   0.9908   0
1253.637   0.6263   0.2351   0.9908   0
1253.697   0.4221   0.2189   0.9908   0
1253.757   0.6880   0.2398   0.9909   0
1253.817   0.5453   0.2286   0.9909   0
1253.877   0.4635   0.2231   0.9909   0
1253.936   0.6068   0.2329   0.9909   0
1253.996   0.4233   0.2201   0.9910   0
1254.056   0.4440   0.2208   0.9910   0
1254.116   0.7295   0.2415   0.9910   0
1254.176   0.7913   0.2470   0.9911   0
1254.235   0.7292   0.2422   0.9911   0
1254.295   0.6273   0.2351   0.9911   0
1254.355   0.5668   0.2316   0.9911   0
1254.415   0.9146   0.2543   0.9912   0
1254.475   0.7922   0.2461   0.9912   0
1254.535   0.9372   0.2557   0.9912   0
1254.594   0.8757   0.2508   0.9912   0
1254.654   0.7729   0.2452   0.9913   0
1254.714   0.9769   0.2590   0.9913   0
1254.774   0.6290   0.2356   0.9913   0
1254.834   0.7112   0.2410   0.9913   0
1254.894   0.6284   0.2345   0.9914   0
1254.953   0.6897   0.2396   0.9914   0
1255.013   0.6491   0.2361   0.9914   0
1255.073   0.7307   0.2416   0.9915   0
1255.133   0.6286   0.2345   0.9915   0
1255.193   0.6905   0.2393   0.9915   0
1255.252   0.6299   0.2352   0.9915   0
1255.312   0.5486   0.2293   0.9916   0
1255.372   0.7332   0.2415   0.9916   0
1255.432   0.6722   0.2383   0.9916   0
1255.492   0.6928   0.2397   0.9916   0
1255.552   0.4901   0.2255   0.9917   0
1255.611   0.4220   0.2211   0.9917   0
1255.671   0.5775   0.2344   0.9917   0
1255.731   0.6878   0.2426   0.9917   0
1255.791   0.5999   0.2352   0.9918   0
1255.851   0.5329   0.2306   0.9918   0
1255.911   0.4954   0.2284   0.9918   0
1255.970   0.5982   0.2345   0.9918   0
1256.030   0.5199   0.2273   0.9919   1
1256.090   0.7558   0.2444   0.9919   1
1256.150   0.5503   0.2297   0.9919   1
1256.210   0.3858   0.2159   0.9919   1
1256.269   0.4477   0.2219   0.9919   1
1256.329   0.5918   0.2334   0.9920   1
1256.389   0.9619   0.2575   0.9920   1
1256.449   0.9422   0.2570   0.9920   1
1256.509   0.6128   0.2350   0.9920   1
1256.568   1.1075   0.2676   0.9921   1
1256.628   0.7577   0.2442   0.9921   1
1256.688   0.6960   0.2401   0.9921   1
1256.748   0.9233   0.2561   0.9921   1
1256.808   1.0677   0.2646   0.9922   1
1256.868   0.7999   0.2458   0.9922   1
1256.927   1.0064   0.2604   0.9922   1
1256.987   0.6350   0.2359   0.9922   1
1257.047   0.6568   0.2374   0.9922   1
1257.107   0.6777   0.2392   0.9923   1
1257.167   0.9464   0.2576   0.9923   1
1257.227   0.9155   0.2566   0.9923   1
1257.286   0.8996   0.2578   0.9923   1
1257.346   1.0159   0.2657   0.9924   1
1257.406   0.7329   0.2462   0.9924   1
1257.466   0.9529   0.2602   0.9924   1
1257.526   0.6481   0.2396   0.9924   1
1257.585   0.7826   0.2501   0.9924   1
1257.645   0.8595   0.2549   0.9925   1
1257.705   0.5612   0.2318   0.9925   1
1257.765   1.0340   0.2640   0.9925   1
1257.825   0.9701   0.2594   0.9925   1
1257.885   0.8870   0.2544   0.9926   1
1257.944   0.8461   0.2507   0.9926   1
1258.004   0.8897   0.2539   0.9926   1
1258.064   0.8275   0.2491   0.9926   1
1258.124   0.7422   0.2447   0.9926   1
1258.184   0.8259   0.2498   0.9927   1
1258.243   0.9090   0.2551   0.9927   1
1258.303   0.6803   0.2402   0.9927   1
1258.363   0.9717   0.2587   0.9927   0
1258.423   0.6810   0.2399   0.9927   0
1258.483   0.8478   0.2516   0.9928   0
1258.543   0.7024   0.2422   0.9928   0
1258.602   0.9737   0.2606   0.9928   0
1258.662   0.6612   0.2381   0.9928   0
1258.722   0.6197   0.2364   0.9928   0
1258.782   0.6614   0.2394   0.9929   0
1258.842   0.7669   0.2466   0.9929   0
1258.901   0.7053   0.2428   0.9929   0
1258.961   0.7886   0.2483   0.9929   0
1259.021   0.7887   0.2483   0.9929   0
1259.081   0.9570   0.2590   0.9930   0
1259.141   1.0417   0.2648   0.9930   0
1259.201   0.8748   0.2536   0.9930   0
1259.260   0.5611   0.2324   0.9930   0
1259.320   0.4774   0.2255   0.9930   0
1259.380   0.7275   0.2449   0.9931   0
1259.440   0.7695   0.2474   0.9931   0
1259.500   0.5393   0.2296   0.9931   0
1259.559   0.5604   0.2319   0.9931   0
1259.619   0.4979   0.2280   0.9931   0
1259.679   0.5613   0.2322   0.9931   0
1259.739   0.4577   0.2243   0.9932   0
1259.799   0.5210   0.2290   0.9932   0
1259.859   0.4790   0.2266   0.9932   0
1259.918   0.3536   0.2160   0.9932   0
1259.978   0.1861   0.2012   0.9932   0
1260.038   0.3124   0.2130   0.9933   0
1260.098   0.3121   0.2130   0.9933   0
1260.158   0.4172   0.2215   0.9933   0
1260.218   0.3544   0.2166   0.9933   0
1260.277   0.2497   0.2075   0.9933   0
1260.337   0.2289   0.2054   0.9933   0
1260.397   0.0822   0.1913   0.9934   0
1260.457   0.0620   0.1894   0.9934   0
1260.517   0.0200   0.1850   0.9934   0
1260.576   0.0411   0.1873   0.9934   0
1260.636   0.0411   0.1873   0.9934   0
1260.696   0.0428   0.1880   0.9935   0
1260.756   0.1097   0.1956   0.9935   0
1260.816   0.0233   0.1866   0.9935   0
1260.875   0.0683   0.1919   0.9935   0
1260.935   0.0452   0.1893   0.9935   0
1260.995   0.0924   0.1949   0.9935   0
1261.055   0.0916   0.1949   0.9936   0
1261.115   0.1573   0.2011   0.9936   0
1261.175   0.0857   0.1932   0.9936   0
1261.234   -0.0026   0.1833   0.9936   0
1261.294   0.0817   0.1922   0.9936   0
1261.354   0.1029   0.1944   0.9936   0
1261.414   0.1030   0.1945   0.9937   0
1261.474   0.0609   0.1899   0.9937   0
1261.534   0.1882   0.2029   0.9937   0
1261.593   0.0191   0.1858   0.9937   0
1261.653   0.0189   0.1858   0.9937   0
1261.713   0.0187   0.1859   0.9937   0
1261.773   0.0393   0.1882   0.9938   0
1261.833   0.0391   0.1882   0.9938   0
1261.892   0.0396   0.1883   0.9938   0
1261.952   0.0398   0.1884   0.9938   0
1262.012   0.1457   0.1992   0.9938   0
1262.072   0.0608   0.1906   0.9938   0
1262.132   0.0818   0.1929   0.9939   0
1262.192   0.0825   0.1929   0.9939   0
1262.251   0.0408   0.1886   0.9939   0
1262.311   0.1041   0.1945   0.9939   0
1262.371   0.0189   0.1864   0.9939   0
1262.431   0.0394   0.1887   0.9939   0
1262.491   -0.0032   0.1842   0.9939   0
1262.551   0.0816   0.1931   0.9940   0
1262.610   0.0601   0.1910   0.9940   0
1262.670   0.0386   0.1888   0.9940   0
1262.730   0.1026   0.1952   0.9940   0
1262.790   0.1667   0.2014   0.9940   0
1262.850   0.1239   0.1977   0.9940   0
1262.909   0.3349   0.2174   0.9941   0
1262.969   0.3986   0.2226   0.9941   0
1263.029   0.3988   0.2222   0.9941   0
1263.089   0.4416   0.2261   0.9941   0
1263.149   0.5044   0.2312   0.9941   0
1263.208   0.6731   0.2437   0.9941   0
1263.268   0.7365   0.2468   0.9941   0
1263.328   0.8638   0.2571   0.9942   0
1263.388   0.8444   0.2546   0.9942   0
1263.448   0.7605   0.2313   0.9942   0
1263.508   0.9730   0.2641   0.9942   0
1263.567   0.7392   0.2490   0.9942   0
1263.627   1.0793   0.2698   0.9942   0
1263.687   0.9504   0.2628   0.9942   0
1263.747   0.6745   0.2435   0.9943   0
1263.807   0.7596   0.2500   0.9943   0
1263.867   0.7818   0.2515   0.9943   0
1263.926   0.8471   0.2568   0.9943   0
1263.986   0.6976   0.2463   0.9943   0
1264.046   0.7676   0.2517   0.9943   0
1264.106   1.0004   0.2694   0.9943   0
1264.166   0.8480   0.2601   0.9944   0
1264.225   1.0060   0.2697   0.9944   0
1264.285   0.8285   0.2580   0.9944   0
1264.345   0.8067   0.2574   0.9944   0
1264.405   0.7721   0.2538   0.9944   0
1264.465   0.8547   0.2591   0.9944   0
1264.525   0.6761   0.2435   0.9944   0
1264.584   0.5491   0.2355   0.9945   0
1264.644   0.6982   0.2466   0.9945   0
1264.704   0.9322   0.2627   0.9945   0
1264.764   0.6982   0.2455   0.9945   0
1264.824   0.9534   0.2628   0.9945   0
1264.883   1.1024   0.2733   0.9945   0
1264.943   0.9752   0.2644   0.9945   0
1265.003   0.6346   0.2415   0.9945   0
1265.063   0.5924   0.2379   0.9946   0
1265.123   0.8904   0.2582   0.9946   0
1265.183   0.7837   0.2524   0.9946   0
1265.242   0.7835   0.2522   0.9946   0
1265.302   0.8902   0.2596   0.9946   0
1265.362   0.7200   0.2474   0.9946   0
1265.422   0.9955   0.2674   0.9946   0
1265.482   0.8671   0.2579   0.9947   0
1265.542   0.7818   0.2523   0.9947   0
1265.601   0.8459   0.2569   0.9947   0
1265.661   0.7832   0.2528   0.9947   0
1265.721   0.8525   0.2597   0.9947   0
1265.781   0.8429   0.2591   0.9947   0
1265.841   0.8290   0.2600   0.9947   0
1265.900   0.9760   0.2693   0.9947   0
1265.960   0.8073   0.2594   0.9948   0
1266.020   0.7635   0.2571   0.9948   0
1266.080   0.8835   0.2672   0.9948   0
1266.140   0.6258   0.2444   0.9948   0
1266.199   0.6386   0.2443   0.9948   0
1266.259   0.6098   0.2423   0.9948   0
1266.319   0.6999   0.2477   0.9948   0
1266.379   0.8185   0.2535   0.9948   0
1266.439   0.5011   0.2313   0.9949   0
1266.499   0.4377   0.2266   0.9949   0
1266.558   0.5232   0.2336   0.9949   0
1266.618   0.5647   0.2356   0.9949   0
1266.678   0.6066   0.2396   0.9949   0
1266.738   0.4587   0.2287   0.9949   0
1266.798   0.4586   0.2281   0.9949   0
1266.858   0.3948   0.2229   0.9949   0
1266.917   0.4796   0.2297   0.9949   0
1266.977   0.6499   0.2421   0.9950   0
1267.037   0.6923   0.2442   0.9950   0
1267.097   0.8623   0.2573   0.9950   0
1267.157   0.7562   0.2498   0.9950   0
1267.216   0.7135   0.2463   0.9950   0
1267.276   0.8615   0.2573   0.9950   0
1267.336   0.8187   0.2544   0.9950   0
1267.396   0.9659   0.2642   0.9950   0
1267.456   0.7765   0.2513   0.9951   0
1267.516   0.9661   0.2652   0.9951   0
1267.575   1.0711   0.2698   0.9951   0
1267.635   0.9445   0.2621   0.9951   0
1267.695   1.3230   0.2844   0.9951   0
1267.755   1.0067   0.2662   0.9951   0
1267.815   1.1527   0.2747   0.9951   0
1267.875   1.1106   0.2719   0.9951   0
1267.934   0.7533   0.2491   0.9951   0
1267.994   0.8165   0.2524   0.9952   0
1268.054   0.9007   0.2590   0.9952   0
1268.114   1.0476   0.2683   0.9952   0
1268.174   1.0078   0.2661   0.9952   0
1268.233   0.8934   0.2600   0.9952   0
1268.293   0.9197   0.2637   0.9952   0
1268.353   0.7164   0.2504   0.9952   0
1268.413   0.9866   0.2720   0.9952   0
1268.473   0.8264   0.2602   0.9952   0
1268.532   0.8626   0.2613   0.9953   0
1268.592   0.8413   0.2592   0.9953   0
1268.652   1.0074   0.2666   0.9953   0
1268.712   1.0349   0.2683   0.9953   0
1268.772   0.7524   0.2487   0.9953   0
1268.832   1.1668   0.2751   0.9953   0
1268.891   0.6406   0.2405   0.9953   0
1268.951   1.0139   0.2652   0.9953   0
1269.011   1.0334   0.2665   0.9953   0
1269.071   0.9079   0.2579   0.9953   0
1269.131   0.8337   0.2536   0.9954   0
1269.191   1.2321   0.2851   0.9954   0
1269.250   0.9906   0.2710   0.9954   1
1269.310   1.0216   0.2764   0.9954   1
1269.370   0.8948   0.2675   0.9954   1
1269.430   0.8038   0.2628   0.9954   1
1269.490   0.8500   0.2628   0.9954   1
1269.549   1.1006   0.2777   0.9954   1
1269.609   1.1744   0.2744   0.9954   1
1269.669   1.1523   0.2731   0.9954   1
1269.729   0.8201   0.2518   0.9955   1
1269.789   0.8834   0.2557   0.9955   1
1269.849   0.9659   0.2600   0.9955   1
1269.908   1.1712   0.2716   0.9955   1
1269.968   0.8618   0.2537   0.9955   1
1270.028   0.7584   0.2471   0.9955   1
1270.088   0.8194   0.2501   0.9955   1
1270.148   1.0024   0.2625   0.9955   1
1270.208   1.0412   0.2640   0.9955   1
1270.267   0.8977   0.2553   0.9955   1
1270.327   1.0815   0.2664   0.9956   1
1270.387   0.8965   0.2550   0.9956   1
1270.447   0.8962   0.2548   0.9956   1
1270.507   0.8750   0.2537   0.9956   1
1270.566   0.8910   0.2808   0.9956   1
1270.626   0.9799   0.3011   0.9956   1
1270.686   1.0882   0.3082   0.9956   1
1270.746   0.8973   0.2946   0.9956   1
1270.806   0.9831   0.2998   0.9956   1
1270.865   0.7262   0.2839   0.9956   1
1270.925   1.1595   0.3179   0.9957   1
1270.985   1.2065   0.3232   0.9957   1
1271.045   1.0679   0.3140   0.9957   1
1271.105   0.7907   0.2895   0.9957   1
1271.165   0.9410   0.3009   0.9957   1
1271.224   1.0245   0.3048   0.9957   1
1271.284   0.8415   0.2892   0.9957   1
1271.344   0.7282   0.2801   0.9957   1
1271.404   1.1598   0.3119   0.9957   1
1271.464   0.9449   0.2967   0.9957   1
1271.524   0.8277   0.2892   0.9957   1
1271.583   0.8273   0.2919   0.9958   1
1271.643   0.8326   0.2953   0.9958   1
1271.703   1.0678   0.3157   0.9958   1
1271.763   0.9513   0.3078   0.9958   1
1271.823   0.9662   0.3075   0.9958   1
1271.882   0.7918   0.2891   0.9958   1
1271.942   1.0896   0.3079   0.9958   1
1272.002   0.7096   0.2783   0.9958   1
1272.062   0.8376   0.2874   0.9958   1
1272.122   1.2093   0.3112   0.9958   1
1272.182   0.9876   0.2955   0.9958   1
1272.241   1.2257   0.3110   0.9959   1
1272.301   1.1179   0.3054   0.9959   1
1272.361   1.2778   0.3160   0.9959   1
1272.421   0.8235   0.2834   0.9959   1
1272.481   0.7710   0.2811   0.9959   1
1272.540   1.0361   0.3035   0.9959   1
1272.600   1.3118   0.3198   0.9959   1
1272.660   0.9832   0.3004   0.9959   1
1272.720   1.0258   0.3046   0.9959   1
1272.780   1.2766   0.3215   0.9959   1
1272.840   1.0281   0.3016   0.9959   1
1272.899   0.5873   0.2651   0.9959   1
1272.959   0.8735   0.2872   0.9960   1
1273.019   1.0023   0.2952   0.9960   1
1273.079   0.8425   0.2826   0.9960   1
1273.139   1.1935   0.3090   0.9960   1
1273.198   0.8716   0.2887   0.9960   1
1273.258   0.8423   0.2901   0.9960   1
1273.318   0.7620   0.2868   0.9960   1
1273.378   0.8987   0.2980   0.9960   1
1273.438   0.7991   0.2908   0.9960   1
1273.498   0.8957   0.2958   0.9960   1
1273.557   0.7400   0.2796   0.9960   1
1273.617   0.8304   0.2841   0.9960   1
1273.677   1.0606   0.2989   0.9961   1
1273.737   1.1903   0.3086   0.9961   1
1273.797   1.0540   0.2990   0.9961   1
1273.856   0.6784   0.3131   0.9961   1
1273.916   1.0983   0.3704   0.9961   1
1273.976   0.8212   0.3459   0.9961   1
1274.036   0.9002   0.3509   0.9961   1
1274.096   1.1182   0.3717   0.9961   1
1274.156   0.7092   0.3387   0.9961   1
1274.215   0.6228   0.3287   0.9961   1
1274.275   1.0541   0.3743   0.9961   1
1274.335   0.5915   0.3315   0.9961   1
1274.395   1.1979   0.4007   0.9962   1
1274.455   0.9482   0.3763   0.9962   1
1274.515   0.5976   0.3387   0.9962   1
1274.574   0.9998   0.3710   0.9962   1
1274.634   1.1104   0.3717   0.9962   1
1274.694   1.0515   0.3677   0.9962   1
1274.754   0.6192   0.3234   0.9962   1
1274.814   1.0520   0.3640   0.9962   1
1274.873   0.7784   0.3394   0.9962   1
1274.933   0.6999   0.3298   0.9962   1
1274.993   0.5653   0.2935   0.9962   1
1275.053   1.1295   0.3703   0.9962   1
1275.113   0.9725   0.3572   0.9962   1
1275.172   1.2491   0.3798   0.9963   1
1275.232   0.8968   0.3512   0.9963   1
1275.292   1.1332   0.3711   0.9963   1
1275.352   0.8985   0.3510   0.9963   1
1275.412   0.7813   0.3387   0.9963   1
1275.472   1.1733   0.3954   0.9963   1
1275.531   1.1015   0.5219   0.9963   1
1275.591   0.9423   0.5022   0.9963   1
1275.651   0.7845   0.4819   0.9963   1
1275.711   1.3342   0.5450   0.9963   1
1275.771   1.1777   0.5311   0.9963   1
1275.831   1.0988   0.5210   0.9963   1
1275.890   1.0209   0.5130   0.9963   1
1275.950   0.7050   0.4725   0.9964   1
1276.010   1.0175   0.5078   0.9964   1
1276.070   0.9382   0.5035   0.9964   1
1276.130   0.7015   0.4710   0.9964   1
1276.189   1.0933   0.5159   0.9964   1
1276.249   0.6210   0.4557   0.9964   1
1276.309   0.7775   0.4819   0.9965   1
1276.369   0.9350   0.5018   0.9966   1
1276.429   1.0113   0.5108   0.9969   1
1276.489   0.9292   0.4993   0.9981   1
