# Best-fit normalized data and profile from VoigtFit
# column 1 : Wavelength
# column 2 : Normalized flux
# column 3 : Normalized error
# column 4 : Best-fit profile
# column 5 : Pixel mask, 1=included, 0=excluded
1134.602   0.9233   0.4681   0.9943   1
1134.662   0.6540   0.4290   0.9943   1
1134.722   0.6734   0.3992   0.9943   1
1134.782   0.3546   0.3105   0.9943   1
1134.841   0.3653   0.2576   0.9943   1
1134.901   0.3132   0.2556   0.9943   1
1134.961   0.9696   0.3097   0.9942   1
1135.021   1.0129   0.2950   0.9942   1
1135.081   0.8408   0.3035   0.9942   1
1135.141   0.7964   0.3304   0.9942   1
1135.200   0.8588   0.2912   0.9942   1
1135.260   0.4928   0.2399   0.9942   1
1135.320   0.6571   0.2575   0.9942   1
1135.380   0.6240   0.2614   0.9942   1
1135.440   1.1664   0.3517   0.9942   1
1135.500   0.8363   0.2931   0.9942   1
1135.559   0.4348   0.2719   0.9942   1
1135.619   0.5688   0.2554   0.9942   1
1135.679   0.7570   0.3061   0.9941   1
1135.739   0.8333   0.3240   0.9941   0
1135.799   0.7008   0.2683   0.9941   0
1135.858   0.3365   0.2179   0.9941   0
1135.918   0.4408   0.2158   0.9941   0
1135.978   0.3548   0.2355   0.9941   0
1136.038   0.2926   0.2380   0.9941   0
1136.098   0.1544   0.1979   0.9941   0
1136.157   0.3355   0.2163   0.9941   0
1136.217   0.1868   0.1854   0.9941   0
1136.277   -0.0161   0.1507   0.9941   0
1136.337   0.1384   0.1964   0.9941   0
1136.397   0.1547   0.1969   0.9940   0
1136.457   0.2926   0.2076   0.9940   0
1136.516   0.0164   0.1490   0.9940   0
1136.576   0.0236   0.1635   0.9940   0
1136.636   -0.0206   0.1638   0.9940   0
1136.696   0.0407   0.1735   0.9940   0
1136.756   0.3165   0.2227   0.9940   0
1136.816   0.1261   0.1742   0.9940   0
1136.875   0.0454   0.1300   0.9940   0
1136.935   0.2813   0.1801   0.9940   0
1136.995   0.1733   0.1447   0.9940   0
1137.055   0.1677   0.1496   0.9939   0
1137.115   0.3025   0.1607   0.9939   0
1137.174   0.2272   0.1540   0.9939   0
1137.234   0.4490   0.1986   0.9939   0
1137.294   0.5147   0.1967   0.9939   0
1137.354   0.5481   0.2021   0.9939   0
1137.414   0.3500   0.1804   0.9939   0
1137.474   0.4900   0.2012   0.9939   0
1137.533   0.6460   0.2252   0.9939   0
1137.593   0.4127   0.2012   0.9939   0
1137.653   0.4324   0.1837   0.9939   0
1137.713   1.1112   0.2448   0.9938   0
1137.773   0.6505   0.2085   0.9938   0
1137.832   0.9485   0.2541   0.9938   0
1137.892   0.9165   0.2463   0.9938   0
1137.952   0.9812   0.2477   0.9938   0
1138.012   0.5870   0.2067   0.9938   0
1138.072   0.9132   0.2431   0.9938   0
1138.132   0.6601   0.2467   0.9938   0
1138.191   0.6993   0.2190   0.9938   0
1138.251   0.7972   0.2280   0.9938   0
1138.311   0.5728   0.1953   0.9937   0
1138.371   0.3729   0.1754   0.9937   0
1138.431   0.4312   0.2085   0.9937   0
1138.490   1.0574   0.2368   0.9937   0
1138.550   0.4139   0.1818   0.9937   0
1138.610   0.6401   0.1908   0.9937   0
1138.670   0.6016   0.2050   0.9937   0
1138.730   0.2853   0.1847   0.9937   0
1138.790   0.7486   0.2114   0.9937   0
1138.849   0.4210   0.1889   0.9937   0
1138.909   0.5979   0.1815   0.9937   0
1138.969   0.6024   0.2138   0.9936   0
1139.029   0.5548   0.2290   0.9936   0
1139.089   0.4065   0.1912   0.9936   0
1139.148   0.3675   0.1706   0.9936   0
1139.208   0.7820   0.1964   0.9936   0
1139.268   0.5929   0.1974   0.9936   0
1139.328   0.3712   0.2009   0.9936   0
1139.388   0.4102   0.1951   0.9936   0
1139.448   0.4730   0.1866   0.9936   0
1139.507   0.8582   0.2059   0.9936   0
1139.567   0.4687   0.1899   0.9935   0
1139.627   0.7362   0.2363   0.9935   0
1139.687   0.6932   0.2153   0.9935   0
1139.747   0.9903   0.2357   0.9935   0
1139.807   0.5787   0.1831   0.9935   0
1139.866   0.6836   0.2292   0.9935   0
1139.926   0.5838   0.2215   0.9935   0
1139.986   0.6692   0.2133   0.9935   0
1140.046   0.4287   0.1807   0.9935   0
1140.106   0.4257   0.1746   0.9935   0
1140.165   0.5599   0.1969   0.9934   0
1140.225   0.6304   0.2355   0.9934   0
1140.285   0.5458   0.1838   0.9934   0
1140.345   0.4716   0.1945   0.9934   0
1140.405   0.4161   0.1602   0.9934   0
1140.464   0.6985   0.1785   0.9934   0
1140.524   0.5075   0.1757   0.9934   0
1140.584   0.5858   0.1593   0.9934   0
1140.644   0.4993   0.1670   0.9934   0
1140.704   0.4271   0.1427   0.9934   0
1140.764   0.5541   0.1515   0.9933   0
1140.823   0.3587   0.1660   0.9933   0
1140.883   0.5612   0.1732   0.9933   0
1140.943   0.5997   0.1588   0.9933   0
1141.003   0.3862   0.1467   0.9933   0
1141.063   0.3213   0.1615   0.9933   0
1141.123   0.7502   0.1925   0.9933   0
1141.182   0.5404   0.1554   0.9933   0
1141.242   0.5281   0.1536   0.9933   0
1141.302   0.4741   0.1455   0.9932   0
1141.362   0.4989   0.1603   0.9932   0
1141.422   0.3881   0.1609   0.9932   0
1141.481   0.4334   0.1612   0.9932   0
1141.541   0.7204   0.1689   0.9932   0
1141.601   0.7728   0.1665   0.9932   0
1141.661   0.5279   0.1597   0.9932   0
1141.721   0.3273   0.1489   0.9932   0
1141.781   0.6067   0.1650   0.9932   0
1141.840   0.4311   0.1533   0.9932   0
1141.900   0.5638   0.1506   0.9931   0
1141.960   0.5526   0.1683   0.9931   0
1142.020   0.5279   0.1781   0.9931   0
1142.080   0.7679   0.1764   0.9931   0
1142.140   0.3118   0.1323   0.9931   0
1142.199   0.3079   0.1344   0.9931   0
1142.259   0.5599   0.1614   0.9931   0
1142.319   0.5733   0.1811   0.9931   0
1142.379   0.6417   0.1671   0.9931   0
1142.439   0.4040   0.1520   0.9930   0
1142.498   0.4925   0.1461   0.9930   0
1142.558   0.2235   0.1308   0.9930   0
1142.618   0.6925   0.2014   0.9930   0
1142.678   0.5802   0.1678   0.9930   0
1142.738   0.3518   0.1384   0.9930   0
1142.797   0.3128   0.1294   0.9930   0
1142.857   0.4262   0.1486   0.9930   0
1142.917   0.4199   0.1632   0.9930   0
1142.977   0.4334   0.1488   0.9929   0
1143.037   0.6370   0.1748   0.9929   0
1143.097   0.3978   0.1363   0.9929   0
1143.156   0.4085   0.1400   0.9929   0
1143.216   0.6366   0.1777   0.9929   0
1143.276   0.3362   0.1364   0.9929   0
1143.336   0.4126   0.1519   0.9929   0
1143.396   0.3639   0.1262   0.9929   0
1143.456   0.5408   0.1707   0.9928   0
1143.515   0.4637   0.1643   0.9928   0
1143.575   0.6101   0.1568   0.9928   0
1143.635   0.3685   0.1395   0.9928   0
1143.695   0.2950   0.1248   0.9928   0
1143.755   0.6559   0.1527   0.9928   0
1143.814   0.6202   0.1747   0.9928   0
1143.874   0.5216   0.1608   0.9928   0
1143.934   0.5571   0.1489   0.9928   0
1143.994   0.4235   0.1361   0.9927   0
1144.054   0.6060   0.1674   0.9927   0
1144.114   0.3657   0.1598   0.9927   0
1144.173   0.5226   0.1552   0.9927   0
1144.233   0.3358   0.1383   0.9927   0
1144.293   0.4005   0.1367   0.9927   0
1144.353   0.5885   0.1525   0.9927   0
1144.413   0.6794   0.1801   0.9927   0
1144.472   0.2866   0.1322   0.9926   0
1144.532   0.2467   0.1241   0.9926   0
1144.592   0.2868   0.1180   0.9926   0
1144.652   0.3082   0.1268   0.9926   0
1144.712   0.1165   0.1143   0.9926   0
1144.772   0.2473   0.1215   0.9926   0
1144.831   0.2159   0.1154   0.9926   0
1144.891   0.1919   0.1073   0.9926   0
1144.951   0.0570   0.0887   0.9926   0
1145.011   0.1693   0.1233   0.9925   0
1145.071   0.2207   0.1087   0.9925   0
1145.130   0.2501   0.1204   0.9925   0
1145.190   0.2677   0.1149   0.9925   0
1145.250   0.2159   0.1141   0.9925   0
1145.310   0.1791   0.1179   0.9925   0
1145.370   0.3170   0.1363   0.9925   0
1145.430   0.2050   0.1081   0.9925   0
1145.489   0.2874   0.1143   0.9924   0
1145.549   0.3257   0.1384   0.9924   0
1145.609   0.2637   0.1436   0.9924   0
1145.669   0.3384   0.1286   0.9924   0
1145.729   0.5548   0.1554   0.9924   0
1145.788   0.4716   0.1352   0.9924   0
1145.848   0.3557   0.1459   0.9924   0
1145.908   0.2747   0.1326   0.9924   0
1145.968   0.4797   0.1454   0.9923   0
1146.028   0.3515   0.1412   0.9923   0
1146.088   0.5705   0.1458   0.9923   0
1146.147   0.2913   0.1348   0.9923   0
1146.207   0.2526   0.1487   0.9923   0
1146.267   0.5743   0.1530   0.9923   0
1146.327   0.3684   0.1418   0.9923   0
1146.387   0.4584   0.1413   0.9922   0
1146.447   0.4408   0.1350   0.9922   0
1146.506   0.1469   0.1298   0.9922   0
1146.566   0.2606   0.1204   0.9922   0
1146.626   0.3000   0.1266   0.9922   0
1146.686   0.2627   0.1153   0.9922   0
1146.746   0.2731   0.1162   0.9922   0
1146.805   0.2619   0.1308   0.9922   0
1146.865   0.1213   0.1002   0.9921   0
1146.925   0.1543   0.1026   0.9921   0
1146.985   0.1024   0.0880   0.9921   0
1147.045   0.0938   0.0923   0.9921   0
1147.104   0.1536   0.1149   0.9921   0
1147.164   0.2212   0.1147   0.9921   0
1147.224   0.1799   0.1063   0.9921   0
1147.284   0.1238   0.0908   0.9920   0
1147.344   0.2244   0.1125   0.9920   0
1147.404   0.1850   0.1174   0.9920   0
1147.464   0.3275   0.1444   0.9920   0
1147.523   0.4546   0.1487   0.9920   0
1147.583   0.3495   0.1291   0.9920   0
1147.643   0.5247   0.1469   0.9920   0
1147.703   0.5074   0.1737   0.9920   0
1147.763   0.4449   0.1515   0.9919   0
1147.822   0.7357   0.1756   0.9919   0
1147.882   0.5302   0.1552   0.9919   0
1147.942   0.8152   0.1696   0.9919   0
1148.002   0.4032   0.1646   0.9919   0
1148.062   0.7260   0.1769   0.9919   0
1148.121   0.6695   0.1552   0.9919   0
1148.181   0.3510   0.1338   0.9918   0
1148.241   0.4694   0.1464   0.9918   1
1148.301   0.3378   0.1557   0.9918   1
1148.361   0.5763   0.1543   0.9918   1
1148.421   0.5956   0.1580   0.9918   1
1148.480   0.6621   0.1477   0.9918   1
1148.540   0.8271   0.1754   0.9918   1
1148.600   0.7093   0.1804   0.9917   1
1148.660   0.6626   0.1683   0.9917   1
1148.720   0.7778   0.1829   0.9917   1
1148.780   0.6076   0.1505   0.9917   1
1148.839   1.0886   0.1927   0.9917   1
1148.899   0.5451   0.1714   0.9917   1
1148.959   0.9401   0.1856   0.9917   1
1149.019   0.5179   0.1560   0.9916   1
1149.079   0.6808   0.1451   0.9916   1
1149.138   1.1903   0.1968   0.9916   1
1149.198   0.8401   0.1956   0.9916   1
1149.258   0.8167   0.1761   0.9916   1
1149.318   0.8960   0.1881   0.9916   1
1149.378   0.6703   0.1524   0.9916   1
1149.438   0.8641   0.1773   0.9915   1
1149.497   0.6544   0.1883   0.9915   0
1149.557   0.5484   0.1544   0.9915   0
1149.617   0.5171   0.1482   0.9915   0
1149.677   0.7935   0.1589   0.9915   0
1149.737   1.0052   0.1874   0.9915   0
1149.797   0.5556   0.1612   0.9914   0
1149.856   0.7708   0.1748   0.9914   0
1149.916   0.8299   0.1744   0.9914   0
1149.976   0.7295   0.1510   0.9914   0
1150.036   0.8399   0.1760   0.9914   0
1150.096   0.6721   0.1742   0.9914   0
1150.155   0.5469   0.1614   0.9914   0
1150.215   0.9787   0.1876   0.9913   0
1150.275   0.7190   0.1489   0.9913   0
1150.335   0.5056   0.1566   0.9913   0
1150.395   0.6289   0.1708   0.9913   0
1150.454   0.5393   0.1567   0.9913   0
1150.514   0.6588   0.1604   0.9913   0
1150.574   0.6073   0.1529   0.9912   0
1150.634   0.8105   0.1818   0.9912   0
1150.694   0.4685   0.1595   0.9912   0
1150.754   0.6233   0.1657   0.9912   0
1150.813   0.3758   0.1413   0.9912   0
1150.873   0.6366   0.1466   0.9912   0
1150.933   0.6713   0.1594   0.9912   0
1150.993   0.8832   0.1867   0.9911   0
1151.053   0.7640   0.1611   0.9911   0
1151.113   0.6708   0.1720   0.9911   0
1151.172   0.7615   0.1614   0.9911   0
1151.232   0.5920   0.1551   0.9911   0
1151.292   0.8630   0.1971   0.9911   0
1151.352   0.7654   0.1714   0.9910   0
1151.412   0.8444   0.1798   0.9910   0
1151.471   0.6481   0.1647   0.9910   0
1151.531   0.8400   0.1727   0.9910   0
1151.591   0.9032   0.1942   0.9910   0
1151.651   0.5894   0.1461   0.9910   0
1151.711   0.7406   0.1554   0.9909   0
1151.771   0.5605   0.1495   0.9909   0
1151.830   0.5768   0.1480   0.9909   0
1151.890   0.7416   0.1921   0.9909   0
1151.950   0.7253   0.1616   0.9909   0
1152.010   0.5345   0.1452   0.9909   0
1152.070   0.8249   0.1610   0.9908   0
1152.129   0.5274   0.1491   0.9908   0
1152.189   0.5604   0.1636   0.9908   0
1152.249   0.7896   0.1758   0.9908   0
1152.309   0.7444   0.1735   0.9908   0
1152.369   0.7648   0.1536   0.9908   0
1152.429   0.9786   0.1856   0.9907   0
1152.488   0.6086   0.1733   0.9907   0
1152.548   0.6549   0.1503   0.9907   0
1152.608   0.8690   0.1718   0.9907   0
1152.668   0.4872   0.1303   0.9907   0
1152.728   0.3820   0.1477   0.9907   0
1152.787   0.4542   0.1725   0.9906   0
1152.847   0.5973   0.1535   0.9906   0
1152.907   0.5295   0.1476   0.9906   0
1152.967   0.4739   0.1330   0.9906   0
1153.027   0.4253   0.1354   0.9906   0
1153.087   0.5721   0.1620   0.9905   0
1153.146   0.6051   0.1586   0.9905   0
1153.206   0.5504   0.1471   0.9905   0
1153.266   0.3715   0.1225   0.9905   0
1153.326   0.6682   0.1650   0.9905   0
1153.386   0.5918   0.1690   0.9905   0
1153.445   0.3520   0.1366   0.9904   0
1153.505   0.8789   0.1779   0.9904   0
1153.565   0.7508   0.1523   0.9904   0
1153.625   0.6255   0.1573   0.9904   0
1153.685   0.6394   0.1707   0.9904   0
1153.745   0.6772   0.1588   0.9904   0
1153.804   0.8988   0.1707   0.9903   0
1153.864   0.6209   0.1503   0.9903   0
1153.924   0.8707   0.1738   0.9903   0
1153.984   0.8163   0.1879   0.9903   0
1154.044   0.6440   0.1528   0.9903   0
1154.104   0.5409   0.1545   0.9902   0
1154.163   0.9081   0.1628   0.9902   0
1154.223   0.7545   0.1543   0.9902   0
1154.283   0.5016   0.1646   0.9902   0
1154.343   0.6561   0.1576   0.9902   0
1154.403   0.6681   0.1522   0.9901   0
1154.462   0.4692   0.1378   0.9901   0
1154.522   0.5263   0.1416   0.9901   0
1154.582   0.5084   0.1529   0.9901   0
1154.642   0.6137   0.1562   0.9901   0
1154.702   0.5677   0.1489   0.9901   0
1154.761   0.6606   0.1423   0.9900   0
1154.821   0.5549   0.1475   0.9900   0
1154.881   0.5351   0.1544   0.9900   0
1154.941   0.3435   0.1252   0.9900   0
1155.001   0.4875   0.1433   0.9900   0
1155.061   0.3532   0.1107   0.9899   0
1155.120   0.6170   0.1504   0.9899   0
1155.180   0.4150   0.1445   0.9899   0
1155.240   0.2884   0.1290   0.9899   0
1155.300   0.5414   0.1426   0.9899   0
1155.360   0.6030   0.1345   0.9898   0
1155.420   0.7539   0.1584   0.9898   0
1155.479   0.4770   0.1567   0.9898   0
1155.539   0.7436   0.1677   0.9898   0
1155.599   0.6097   0.1555   0.9898   0
1155.659   0.5014   0.1408   0.9897   0
1155.719   0.7788   0.1626   0.9897   0
1155.778   0.7496   0.1847   0.9897   0
1155.838   0.4090   0.1339   0.9897   0
1155.898   0.5642   0.1435   0.9897   0
1155.958   0.6398   0.1391   0.9896   0
1156.018   0.5624   0.1486   0.9896   0
1156.078   0.6065   0.1580   0.9896   0
1156.137   0.4080   0.1393   0.9896   0
1156.197   0.3755   0.1253   0.9896   0
1156.257   0.6247   0.1343   0.9895   0
1156.317   0.6248   0.1517   0.9895   0
1156.377   0.6787   0.1755   0.9895   0
1156.437   0.7395   0.1497   0.9895   0
1156.496   0.6879   0.1597   0.9895   0
1156.556   0.5790   0.1403   0.9894   0
1156.616   0.7036   0.1511   0.9894   0
1156.676   0.7055   0.1642   0.9894   0
1156.736   0.9081   0.1671   0.9894   0
1156.795   0.3848   0.1238   0.9894   0
1156.855   0.7035   0.1491   0.9893   0
1156.915   0.5028   0.1435   0.9893   0
1156.975   0.5950   0.1577   0.9893   0
1157.035   0.6706   0.1539   0.9893   0
1157.094   0.6328   0.1554   0.9893   0
1157.154   0.6329   0.1401   0.9892   0
1157.214   0.5123   0.1415   0.9892   0
1157.274   0.8519   0.1818   0.9892   0
1157.334   0.5616   0.1553   0.9892   0
1157.394   0.7330   0.1619   0.9891   0
1157.453   0.5003   0.1307   0.9891   0
1157.513   0.4727   0.1295   0.9891   0
1157.573   0.6125   0.1556   0.9891   0
1157.633   0.8806   0.1642   0.9891   0
1157.693   0.6165   0.1546   0.9890   0
1157.753   0.7365   0.1366   0.9890   0
1157.812   0.5987   0.1544   0.9890   0
1157.872   0.7779   0.1643   0.9890   0
1157.932   0.4707   0.1421   0.9889   0
1157.992   0.5644   0.1542   0.9889   0
1158.052   0.5952   0.1388   0.9889   0
1158.111   0.3866   0.1328   0.9889   0
1158.171   0.7939   0.1702   0.9889   0
1158.231   0.6999   0.1521   0.9888   0
1158.291   0.7327   0.1570   0.9888   0
1158.351   0.5525   0.1259   0.9888   0
1158.411   0.4261   0.1286   0.9888   0
1158.470   0.8392   0.1699   0.9887   0
1158.530   0.5967   0.1467   0.9887   0
1158.590   0.5529   0.1450   0.9887   0
1158.650   0.5365   0.1355   0.9887   0
1158.710   0.5485   0.1412   0.9887   0
1158.769   0.8242   0.1694   0.9886   0
1158.829   0.4499   0.1411   0.9886   0
1158.889   0.5576   0.1409   0.9886   0
1158.949   0.5082   0.1294   0.9886   0
1159.009   0.6519   0.1493   0.9885   0
1159.069   0.6609   0.1534   0.9885   0
1159.128   0.6960   0.1573   0.9885   0
1159.188   0.5575   0.1423   0.9885   0
1159.248   0.6630   0.1439   0.9884   0
1159.308   0.7192   0.1570   0.9884   0
1159.368   0.8804   0.1807   0.9884   0
1159.427   0.4479   0.1421   0.9884   0
1159.487   0.7348   0.1554   0.9883   0
1159.547   0.5702   0.1357   0.9883   0
1159.607   0.5784   0.1503   0.9883   0
1159.667   0.6109   0.1723   0.9883   0
1159.727   0.6504   0.1502   0.9882   0
1159.786   0.7965   0.1550   0.9882   0
1159.846   0.6477   0.1407   0.9882   0
1159.906   0.7379   0.1548   0.9882   0
1159.966   0.5380   0.1450   0.9881   0
1160.026   0.4973   0.1345   0.9881   0
1160.085   0.4472   0.1409   0.9881   0
1160.145   0.4386   0.1143   0.9881   0
1160.205   0.2399   0.1194   0.9881   0
1160.265   0.5759   0.1473   0.9880   0
1160.325   0.3443   0.1292   0.9880   0
1160.385   0.4523   0.1356   0.9880   0
1160.444   0.6672   0.1398   0.9879   0
1160.504   0.6021   0.1511   0.9879   0
1160.564   0.6753   0.1684   0.9879   0
1160.624   0.6487   0.1547   0.9879   0
1160.684   0.7145   0.1575   0.9878   0
1160.744   0.9402   0.1517   0.9878   0
1160.803   0.7600   0.1615   0.9878   0
1160.863   0.5241   0.1665   0.9878   0
1160.923   0.7505   0.1489   0.9877   0
1160.983   0.8379   0.1628   0.9877   0
1161.043   0.7975   0.1456   0.9877   0
1161.102   0.6330   0.1550   0.9877   0
1161.162   0.5440   0.1684   0.9876   0
1161.222   0.5373   0.1350   0.9876   0
1161.282   0.4638   0.1471   0.9876   0
1161.342   0.5685   0.1339   0.9876   0
1161.401   0.7515   0.1498   0.9875   0
1161.461   0.4142   0.1553   0.9875   0
1161.521   0.7779   0.1680   0.9875   0
1161.581   0.6137   0.1604   0.9875   0
1161.641   0.5629   0.1256   0.9874   0
1161.701   0.5919   0.1364   0.9874   0
1161.760   0.5827   0.1528   0.9874   0
1161.820   0.4371   0.1252   0.9873   0
1161.880   0.4825   0.1495   0.9873   0
1161.940   0.4760   0.1239   0.9873   0
1162.000   0.4399   0.1325   0.9873   0
1162.060   0.4869   0.1478   0.9872   0
1162.119   0.6605   0.1601   0.9872   0
1162.179   0.5508   0.1490   0.9872   0
1162.239   0.6462   0.1385   0.9872   0
1162.299   0.6412   0.1571   0.9871   0
1162.359   0.3820   0.1356   0.9871   0
1162.418   0.4995   0.1322   0.9871   0
1162.478   0.5563   0.1392   0.9870   0
1162.538   0.5864   0.1304   0.9870   0
1162.598   0.8215   0.1582   0.9870   0
1162.658   0.5537   0.1519   0.9870   0
1162.718   0.7548   0.1612   0.9869   0
1162.777   0.7820   0.1534   0.9869   0
1162.837   0.5276   0.1336   0.9869   0
1162.897   0.5819   0.1472   0.9868   0
1162.957   1.0652   0.1887   0.9868   0
1163.017   0.5220   0.1405   0.9868   0
1163.077   0.6197   0.1504   0.9868   0
1163.136   0.6966   0.1480   0.9867   0
1163.196   0.4916   0.1342   0.9867   0
1163.256   0.6354   0.1629   0.9867   0
1163.316   0.6531   0.1412   0.9866   0
1163.376   0.4296   0.1460   0.9866   0
1163.435   0.5165   0.1295   0.9866   0
1163.495   0.6669   0.1465   0.9865   0
1163.555   0.7493   0.1718   0.9865   0
1163.615   0.6089   0.1449   0.9865   0
1163.675   0.5595   0.1527   0.9865   0
1163.734   0.6633   0.1406   0.9864   0
1163.794   0.6757   0.1477   0.9864   0
1163.854   0.7804   0.1656   0.9864   0
1163.914   0.7150   0.1508   0.9863   0
1163.974   0.7317   0.1537   0.9863   0
1164.034   0.5174   0.1194   0.9863   0
1164.093   0.3998   0.1252   0.9862   0
1164.153   0.5261   0.1573   0.9862   0
1164.213   0.6591   0.1638   0.9862   0
1164.273   0.5921   0.1440   0.9862   0
1164.333   0.4164   0.1191   0.9861   0
1164.393   0.7453   0.1517   0.9861   0
1164.452   0.3781   0.1337   0.9861   0
1164.512   0.7845   0.1545   0.9860   0
1164.572   0.7082   0.1516   0.9860   0
1164.632   0.7842   0.1501   0.9860   0
1164.692   0.7475   0.1673   0.9859   0
1164.751   0.6241   0.1625   0.9859   0
1164.811   0.5917   0.1452   0.9859   0
1164.871   0.8944   0.1572   0.9858   0
1164.931   0.8515   0.1454   0.9858   0
1164.991   0.7076   0.1560   0.9858   0
1165.051   0.8424   0.1666   0.9857   0
1165.110   0.4046   0.1494   0.9857   0
1165.170   0.7265   0.1521   0.9857   0
1165.230   0.6549   0.1368   0.9856   0
1165.290   0.6020   0.1500   0.9856   0
1165.350   0.7276   0.1688   0.9856   0
1165.409   0.4451   0.1445   0.9855   0
1165.469   0.7228   0.1519   0.9855   0
1165.529   1.0397   0.1547   0.9855   0
1165.589   1.0140   0.1754   0.9854   0
1165.649   0.7630   0.1652   0.9854   0
1165.709   0.6862   0.1502   0.9854   0
1165.768   0.6719   0.1574   0.9853   0
1165.828   0.8933   0.1499   0.9853   0
1165.888   0.4677   0.1289   0.9853   0
1165.948   0.6432   0.1548   0.9852   0
1166.008   0.8176   0.1599   0.9852   0
1166.068   0.7477   0.1512   0.9852   0
1166.127   0.5816   0.1271   0.9851   0
1166.187   0.7238   0.1483   0.9851   0
1166.247   0.8396   0.1741   0.9851   0
1166.307   0.8228   0.1582   0.9850   0
1166.367   0.9964   0.1678   0.9850   0
1166.426   0.6438   0.1355   0.9850   0
1166.486   0.8783   0.1622   0.9849   0
1166.546   0.8036   0.1737   0.9849   0
1166.606   0.7026   0.1506   0.9849   0
1166.666   0.7341   0.1578   0.9848   0
1166.725   0.5447   0.1339   0.9848   0
1166.785   0.5210   0.1382   0.9847   0
1166.845   0.5212   0.1515   0.9847   0
1166.905   0.7237   0.1442   0.9847   0
1166.965   0.6742   0.1455   0.9846   0
1167.025   0.5760   0.1286   0.9846   0
1167.084   0.8006   0.1500   0.9846   0
1167.144   0.4049   0.1490   0.9845   0
1167.204   0.4918   0.1359   0.9845   0
1167.264   0.4918   0.1360   0.9845   0
1167.324   0.5437   0.1244   0.9844   0
1167.384   0.6140   0.1390   0.9844   0
1167.443   0.7791   0.1814   0.9843   0
1167.503   0.9526   0.1662   0.9843   0
1167.563   0.6735   0.1496   0.9843   0
1167.623   0.7606   0.1479   0.9842   0
1167.683   0.6899   0.1449   0.9842   0
1167.742   0.5951   0.1526   0.9842   0
1167.802   0.3774   0.1305   0.9841   0
1167.862   0.7830   0.1608   0.9841   0
1167.922   0.8021   0.1511   0.9840   0
1167.982   0.6510   0.1413   0.9840   0
1168.042   0.5886   0.1500   0.9840   0
1168.101   0.5290   0.1335   0.9839   0
1168.161   0.5033   0.1332   0.9839   0
1168.221   0.5575   0.1336   0.9838   0
1168.281   0.5122   0.1299   0.9838   0
1168.341   0.6522   0.1617   0.9838   0
1168.401   0.4714   0.1347   0.9837   0
1168.460   0.6486   0.1410   0.9837   0
1168.520   0.7801   0.1378   0.9836   0
1168.580   0.6939   0.1489   0.9836   0
1168.640   0.4555   0.1456   0.9836   0
1168.700   0.6749   0.1586   0.9835   0
1168.759   0.6933   0.1563   0.9835   0
1168.819   0.5103   0.1244   0.9834   0
1168.879   0.5104   0.1320   0.9834   0
1168.939   0.4464   0.1425   0.9834   0
1168.999   0.5279   0.1344   0.9833   0
1169.058   0.4900   0.1388   0.9833   0
1169.118   0.6970   0.1317   0.9832   0
1169.178   0.6284   0.1417   0.9832   0
1169.238   0.3948   0.1446   0.9832   0
1169.298   0.5000   0.1255   0.9831   0
1169.358   0.3890   0.1237   0.9831   0
1169.417   0.5045   0.1238   0.9830   0
1169.477   0.4985   0.1429   0.9830   0
1169.537   0.5509   0.1506   0.9829   0
1169.597   0.5877   0.1444   0.9829   0
1169.657   0.4016   0.1183   0.9829   0
1169.717   0.4626   0.1234   0.9828   0
1169.776   0.4924   0.1300   0.9828   0
1169.836   0.6415   0.1560   0.9827   0
1169.896   0.5216   0.1300   0.9827   0
1169.956   0.6391   0.1482   0.9826   0
1170.016   0.5387   0.1318   0.9826   0
1170.075   0.4667   0.1345   0.9826   0
1170.135   0.7430   0.1559   0.9825   0
1170.195   0.6571   0.1377   0.9825   0
1170.255   0.5851   0.1362   0.9824   0
1170.315   0.7498   0.1396   0.9824   0
1170.375   0.6446   0.1328   0.9823   0
1170.434   0.3922   0.1389   0.9823   0
1170.494   0.4714   0.1359   0.9822   0
1170.554   0.5680   0.1373   0.9822   0
1170.614   0.5514   0.1252   0.9822   0
1170.674   0.5879   0.1308   0.9821   0
1170.733   0.6869   0.1589   0.9821   0
1170.793   0.4887   0.1308   0.9820   0
1170.853   0.5064   0.1274   0.9820   0
1170.913   0.5841   0.1286   0.9819   0
1170.973   0.3054   0.1225   0.9819   0
1171.033   0.6675   0.1547   0.9818   0
1171.092   0.5623   0.1256   0.9818   0
1171.152   0.4395   0.1255   0.9817   0
1171.212   0.3955   0.1151   0.9817   0
1171.272   0.8034   0.1538   0.9816   0
1171.332   0.5695   0.1409   0.9816   0
1171.391   0.3337   0.1102   0.9815   0
1171.451   0.2487   0.1018   0.9815   0
1171.511   0.2621   0.1086   0.9815   0
1171.571   0.4766   0.1233   0.9814   0
1171.631   0.3093   0.1243   0.9814   0
1171.691   0.4405   0.1238   0.9813   0
1171.750   0.5153   0.1225   0.9813   0
1171.810   0.3866   0.1060   0.9812   0
1171.870   0.3202   0.1113   0.9812   0
1171.930   0.3977   0.1290   0.9811   0
1171.990   0.3195   0.1134   0.9811   0
1172.049   0.3803   0.1168   0.9810   0
1172.109   0.3325   0.1061   0.9810   0
1172.169   0.6175   0.1424   0.9809   0
1172.229   0.2125   0.1141   0.9809   0
1172.289   0.3903   0.1152   0.9808   0
1172.349   0.5046   0.1237   0.9808   0
1172.408   0.5735   0.1208   0.9807   0
1172.468   0.4044   0.1253   0.9807   0
1172.528   0.4750   0.1358   0.9806   0
1172.588   0.4384   0.1253   0.9806   0
1172.648   0.3550   0.1169   0.9805   0
1172.708   0.3112   0.1074   0.9804   0
1172.767   0.4476   0.1271   0.9804   0
1172.827   0.3364   0.1290   0.9803   0
1172.887   0.4952   0.1349   0.9803   0
1172.947   0.3684   0.1093   0.9802   0
1173.007   0.4739   0.1143   0.9802   0
1173.066   0.4700   0.1286   0.9801   0
1173.126   0.3051   0.1218   0.9801   0
1173.186   0.4518   0.1237   0.9800   0
1173.246   0.6564   0.1335   0.9800   0
1173.306   0.5233   0.1211   0.9799   0
1173.365   0.5432   0.1341   0.9799   0
1173.425   0.4858   0.1377   0.9798   0
1173.485   0.4169   0.1305   0.9798   0
1173.545   0.3040   0.1080   0.9797   0
1173.605   0.4277   0.1164   0.9796   0
1173.665   0.2316   0.1118   0.9796   0
1173.724   0.5964   0.1496   0.9795   0
1173.784   0.4964   0.1332   0.9795   0
1173.844   0.3057   0.1204   0.9794   0
1173.904   0.2908   0.1066   0.9794   0
1173.964   0.3774   0.1187   0.9793   0
1174.024   0.3283   0.1270   0.9792   0
1174.083   0.5373   0.1335   0.9792   0
1174.143   0.2335   0.1115   0.9791   0
1174.203   0.2865   0.1003   0.9791   0
1174.263   0.4982   0.1239   0.9790   0
1174.323   0.4157   0.1364   0.9790   0
1174.382   0.3550   0.1223   0.9789   0
1174.442   0.2603   0.1059   0.9788   0
1174.502   0.4276   0.1077   0.9788   0
1174.562   0.3594   0.1154   0.9787   0
1174.622   0.3713   0.1270   0.9787   0
1174.682   0.3395   0.1135   0.9786   0
1174.741   0.2617   0.1137   0.9785   0
1174.801   0.4213   0.1186   0.9785   0
1174.861   0.2458   0.1040   0.9784   0
1174.921   0.3702   0.1295   0.9784   0
1174.981   0.4586   0.1190   0.9783   0
1175.041   0.2510   0.1021   0.9782   0
1175.100   0.3328   0.0975   0.9782   0
1175.160   0.2733   0.1082   0.9781   0
1175.220   0.3083   0.1152   0.9781   0
1175.280   0.2932   0.1043   0.9780   0
1175.340   0.3565   0.1209   0.9779   0
1175.399   0.2787   0.1068   0.9779   0
1175.459   0.1819   0.0891   0.9778   0
1175.519   0.2891   0.1229   0.9777   0
1175.579   0.3320   0.1140   0.9777   0
1175.639   0.3039   0.1063   0.9776   0
1175.698   0.5132   0.1137   0.9776   0
1175.758   0.3380   0.1140   0.9775   0
1175.818   0.4165   0.1371   0.9774   0
1175.878   0.3743   0.1140   0.9774   0
1175.938   0.2173   0.0961   0.9773   0
1175.998   0.2304   0.0929   0.9772   0
1176.057   0.3000   0.1088   0.9772   0
1176.117   0.1975   0.1102   0.9771   0
1176.177   0.1358   0.0870   0.9770   0
1176.237   0.2373   0.1026   0.9770   0
1176.297   0.1999   0.0915   0.9769   0
1176.357   0.2556   0.1028   0.9768   0
1176.416   0.1164   0.0924   0.9768   0
1176.476   0.3354   0.1145   0.9767   0
1176.536   0.3193   0.1088   0.9766   0
1176.596   0.2542   0.0982   0.9766   0
1176.656   0.1706   0.0895   0.9765   0
1176.715   0.1520   0.0960   0.9764   0
1176.775   0.2841   0.1052   0.9764   0
1176.835   0.2760   0.0990   0.9763   0
1176.895   0.2413   0.0906   0.9762   0
1176.955   0.2133   0.1059   0.9761   0
1177.015   0.1687   0.1028   0.9761   0
1177.074   0.2237   0.0978   0.9760   0
1177.134   0.2158   0.1040   0.9759   0
1177.194   0.1458   0.0820   0.9759   0
1177.254   0.0783   0.0788   0.9758   0
1177.314   0.1984   0.1233   0.9757   0
1177.373   0.1049   0.0930   0.9756   0
1177.433   0.1961   0.1088   0.9756   0
1177.493   0.1659   0.1013   0.9755   0
1177.553   0.2542   0.1154   0.9754   0
1177.613   0.1012   0.1052   0.9754   0
1177.673   0.2064   0.1133   0.9753   0
1177.732   0.1946   0.1056   0.9752   0
1177.792   0.2485   0.0992   0.9751   0
1177.852   0.2081   0.0989   0.9751   0
1177.912   0.1180   0.0933   0.9750   0
1177.972   0.2460   0.1040   0.9749   0
1178.031   0.1904   0.0955   0.9748   0
1178.091   0.2092   0.0910   0.9748   0
1178.151   0.1794   0.0930   0.9747   0
1178.211   0.3013   0.1347   0.9746   0
1178.271   0.2582   0.1000   0.9745   0
1178.331   0.2869   0.1044   0.9744   0
1178.390   0.2842   0.1012   0.9744   0
1178.450   0.2758   0.1064   0.9743   0
1178.510   0.1694   0.1096   0.9742   0
1178.570   0.3413   0.1253   0.9741   0
1178.630   0.4118   0.1254   0.9740   0
1178.689   0.2819   0.1060   0.9740   0
1178.749   0.3569   0.1087   0.9739   0
1178.809   0.3465   0.1306   0.9738   0
1178.869   0.4935   0.1274   0.9737   0
1178.929   0.4673   0.1323   0.9736   0
1178.989   0.3738   0.1134   0.9736   0
1179.048   0.4658   0.1291   0.9735   0
1179.108   0.3580   0.1375   0.9734   0
1179.168   0.4963   0.1372   0.9733   0
1179.228   0.5135   0.1372   0.9732   0
1179.288   0.6953   0.1340   0.9731   0
1179.348   0.3904   0.1290   0.9731   0
1179.407   0.5513   0.1504   0.9730   0
1179.467   0.5219   0.1353   0.9729   0
1179.527   0.4822   0.1368   0.9728   0
1179.587   0.8186   0.1431   0.9727   0
1179.647   0.7695   0.1508   0.9726   0
1179.706   0.4169   0.1658   0.9726   0
1179.766   0.8795   0.1626   0.9725   0
1179.826   0.5379   0.1346   0.9724   0
1179.886   0.7990   0.1391   0.9723   0
1179.946   0.5553   0.1399   0.9722   0
1180.005   0.8611   0.1766   0.9721   0
1180.065   0.8744   0.1548   0.9720   0
1180.125   0.5124   0.1413   0.9719   0
1180.185   0.6803   0.1349   0.9718   0
1180.245   0.7346   0.1514   0.9718   0
1180.305   0.5922   0.1498   0.9717   0
1180.365   0.7206   0.1597   0.9716   0
1180.424   0.5886   0.1363   0.9715   0
1180.484   0.7684   0.1390   0.9714   0
1180.544   0.6070   0.1512   0.9713   0
1180.604   0.8609   0.1745   0.9712   0
1180.664   0.6194   0.1451   0.9711   0
1180.723   0.7787   0.1553   0.9710   0
1180.783   0.7432   0.1487   0.9709   0
1180.843   0.7344   0.1480   0.9708   0
1180.903   0.6210   0.1649   0.9707   0
1180.963   0.7533   0.1547   0.9706   0
1181.022   0.6331   0.1462   0.9705   0
1181.082   0.4743   0.1361   0.9704   0
1181.142   0.5371   0.1399   0.9704   0
1181.202   0.4925   0.1527   0.9703   0
1181.262   0.8218   0.1625   0.9702   0
1181.322   0.5970   0.1322   0.9701   0
1181.381   0.5416   0.1297   0.9700   0
1181.441   0.6773   0.1487   0.9699   0
1181.501   0.5962   0.1621   0.9698   0
1181.561   0.8199   0.1541   0.9697   0
1181.621   0.8312   0.1512   0.9696   0
1181.681   0.4321   0.1144   0.9695   0
1181.740   0.5563   0.1344   0.9694   0
1181.800   0.7631   0.1689   0.9693   0
1181.860   0.7097   0.1495   0.9691   0
1181.920   0.7348   0.1533   0.9690   0
1181.980   0.7298   0.1421   0.9689   0
1182.039   0.5695   0.1429   0.9688   0
1182.099   0.5434   0.1530   0.9687   0
1182.159   0.5711   0.1460   0.9686   0
1182.219   0.6735   0.1487   0.9685   0
1182.279   0.7281   0.1422   0.9684   0
1182.339   0.8068   0.1635   0.9683   0
1182.398   0.4933   0.1551   0.9682   0
1182.458   0.6476   0.1414   0.9681   0
1182.518   0.8296   0.1486   0.9680   0
1182.578   0.7895   0.1399   0.9679   0
1182.638   0.9701   0.1579   0.9678   0
1182.698   0.9149   0.1710   0.9677   0
1182.757   0.6621   0.1510   0.9675   0
1182.817   0.6989   0.1438   0.9674   0
1182.877   0.5402   0.1292   0.9673   0
1182.937   0.7052   0.1465   0.9672   0
1182.997   0.5259   0.1461   0.9671   0
1183.056   0.5952   0.1329   0.9670   0
1183.116   0.5592   0.1434   0.9669   0
1183.176   0.4791   0.1287   0.9667   0
1183.236   0.7592   0.1445   0.9666   0
1183.296   0.6377   0.1608   0.9665   0
1183.355   0.8621   0.1565   0.9664   0
1183.415   0.9272   0.1627   0.9663   0
1183.475   0.7727   0.1395   0.9662   0
1183.535   0.6578   0.1496   0.9660   0
1183.595   0.9265   0.1776   0.9659   0
1183.655   0.7360   0.1451   0.9658   0
1183.714   0.6842   0.1493   0.9657   0
1183.774   0.5733   0.1387   0.9656   0
1183.834   0.6772   0.1420   0.9654   0
1183.894   0.7163   0.1561   0.9653   0
1183.954   0.6805   0.1390   0.9652   0
1184.014   0.4805   0.1252   0.9651   0
1184.073   0.5010   0.1318   0.9649   0
1184.133   0.6539   0.1414   0.9648   0
1184.193   0.6912   0.1593   0.9647   0
1184.253   0.5225   0.1326   0.9646   0
1184.313   0.7134   0.1425   0.9644   0
1184.372   0.8097   0.1420   0.9643   0
1184.432   0.6999   0.1408   0.9642   0
1184.492   0.6515   0.1513   0.9641   0
1184.552   0.7387   0.1435   0.9639   0
1184.612   0.6054   0.1405   0.9638   0
1184.672   0.8800   0.1564   0.9637   0
1184.731   0.6583   0.1360   0.9635   0
1184.791   0.7671   0.1648   0.9634   0
1184.851   0.8560   0.1496   0.9633   0
1184.911   0.6242   0.1342   0.9631   0
1184.971   0.3731   0.1149   0.9630   0
1185.030   0.6043   0.1338   0.9629   0
1185.090   0.5601   0.1400   0.9627   0
1185.150   0.4711   0.1292   0.9626   0
1185.210   0.6989   0.1366   0.9625   0
1185.270   0.4722   0.1137   0.9623   0
1185.330   0.7229   0.1486   0.9622   0
1185.389   0.6070   0.1467   0.9620   0
1185.449   0.6109   0.1340   0.9619   0
1185.509   0.5925   0.1321   0.9617   0
1185.569   0.6687   0.1367   0.9616   0
1185.629   0.5391   0.1349   0.9615   0
1185.688   0.6155   0.1446   0.9613   0
1185.748   0.6065   0.1395   0.9612   0
1185.808   0.3050   0.1225   0.9610   0
1185.868   0.6337   0.1321   0.9609   0
1185.928   0.5533   0.1389   0.9607   0
1185.988   0.6597   0.1583   0.9606   0
1186.047   0.7662   0.1416   0.9604   0
1186.107   0.5575   0.1319   0.9603   0
1186.167   0.7640   0.1430   0.9601   0
1186.227   0.6510   0.1372   0.9600   0
1186.287   0.7645   0.1594   0.9598   0
1186.346   0.3811   0.1226   0.9597   0
1186.406   0.5253   0.1326   0.9595   0
1186.466   0.5921   0.1195   0.9594   0
1186.526   0.4560   0.1281   0.9592   0
1186.586   0.4815   0.1288   0.9591   0
1186.646   0.3565   0.1074   0.9589   0
1186.705   0.8716   0.1480   0.9587   0
1186.765   0.6554   0.1299   0.9586   0
1186.825   0.6073   0.1276   0.9584   0
1186.885   0.3473   0.1262   0.9583   0
1186.945   0.6093   0.1397   0.9581   0
1187.005   0.5735   0.1287   0.9579   0
1187.064   0.4947   0.1185   0.9578   0
1187.124   0.4957   0.1257   0.9576   0
1187.184   0.6168   0.1509   0.9574   0
1187.244   0.8946   0.1519   0.9573   0
1187.304   0.8053   0.1482   0.9571   0
1187.363   0.5567   0.1182   0.9569   0
1187.423   0.7060   0.1517   0.9568   0
1187.483   0.5764   0.1523   0.9566   0
1187.543   0.6407   0.1403   0.9564   0
1187.603   0.8821   0.1490   0.9562   0
1187.662   0.7419   0.1327   0.9561   0
1187.722   0.8136   0.1451   0.9559   0
1187.782   0.5733   0.1483   0.9557   0
1187.842   0.6319   0.1400   0.9555   0
1187.902   0.6271   0.1370   0.9554   0
1187.962   0.7379   0.1314   0.9552   0
1188.021   0.9949   0.1588   0.9550   0
1188.081   0.7871   0.1609   0.9548   0
1188.141   0.3059   0.1161   0.9546   0
1188.201   0.8074   0.1527   0.9545   0
1188.261   0.6874   0.1298   0.9543   0
1188.321   0.6723   0.1407   0.9541   0
1188.380   0.5750   0.1412   0.9539   0
1188.440   0.6428   0.1335   0.9537   0
1188.500   0.7168   0.1420   0.9535   0
1188.560   0.8330   0.1335   0.9533   0
1188.620   0.4730   0.1297   0.9531   0
1188.679   0.6496   0.1434   0.9529   0
1188.739   0.6909   0.1362   0.9527   0
1188.799   0.6005   0.1361   0.9526   0
1188.859   0.6505   0.1303   0.9524   0
1188.919   0.7475   0.1436   0.9522   0
1188.979   0.3557   0.1413   0.9520   0
1189.038   0.6339   0.1397   0.9518   0
1189.098   0.5251   0.1304   0.9516   0
1189.158   0.7142   0.1339   0.9514   0
1189.218   0.9251   0.1516   0.9512   0
1189.278   0.8964   0.1656   0.9509   0
1189.338   0.8206   0.1441   0.9507   0
1189.397   0.7497   0.1465   0.9505   0
1189.457   0.8794   0.1354   0.9503   0
1189.517   0.6726   0.1377   0.9501   0
1189.577   0.7218   0.1524   0.9499   0
1189.637   0.8344   0.1462   0.9497   0
1189.696   0.4395   0.1254   0.9495   0
1189.756   0.4006   0.1063   0.9493   0
1189.816   0.4711   0.1182   0.9490   0
1189.876   0.6673   0.1417   0.9488   0
1189.936   0.4370   0.1307   0.9486   0
1189.995   0.2333   0.1005   0.9484   0
1190.055   0.2211   0.0933   0.9482   0
1190.115   0.1535   0.0855   0.9479   0
1190.175   0.1484   0.0924   0.9477   0
1190.235   0.2168   0.0926   0.9475   0
1190.295   0.0697   0.0684   0.9472   0
1190.354   0.1733   0.0788   0.9470   0
1190.414   0.0626   0.0647   0.9468   0
1190.474   0.1876   0.0990   0.9466   0
1190.534   0.1377   0.0829   0.9463   0
1190.594   0.1631   0.0864   0.9461   0
1190.654   0.1943   0.0863   0.9458   0
1190.713   0.1928   0.0908   0.9456   0
1190.773   0.2249   0.1090   0.9454   0
1190.833   0.3093   0.1113   0.9451   0
1190.893   0.3191   0.1110   0.9449   0
1190.953   0.4360   0.1122   0.9446   0
1191.012   0.4983   0.1268   0.9444   0
1191.072   0.3886   0.1173   0.9441   0
1191.132   0.4332   0.1197   0.9439   0
1191.192   0.4360   0.1185   0.9436   0
1191.252   0.5230   0.1073   0.9434   0
1191.312   0.3175   0.1057   0.9431   0
1191.371   0.1989   0.0988   0.9429   0
1191.431   0.4424   0.1207   0.9426   0
1191.491   0.4336   0.1179   0.9423   0
1191.551   0.4923   0.1105   0.9421   0
1191.611   0.5967   0.1338   0.9418   0
1191.670   0.5370   0.1376   0.9415   0
1191.730   0.4590   0.1147   0.9413   0
1191.790   0.4248   0.1100   0.9410   0
1191.850   0.3780   0.1067   0.9407   0
1191.910   0.4471   0.1146   0.9405   0
1191.970   0.6068   0.1408   0.9402   0
1192.029   0.2997   0.0988   0.9399   0
1192.089   0.1938   0.0915   0.9396   0
1192.149   0.1673   0.0814   0.9394   0
1192.209   0.1826   0.0915   0.9391   0
1192.269   0.1343   0.0879   0.9388   0
1192.328   0.0500   0.0630   0.9385   0
1192.388   0.1227   0.0752   0.9382   0
1192.448   0.0944   0.0700   0.9379   0
1192.508   0.0279   0.0577   0.9376   0
1192.568   0.0875   0.0757   0.9373   0
1192.628   0.0313   0.0578   0.9370   0
1192.687   0.0432   0.0604   0.9367   0
1192.747   0.0352   0.0540   0.9364   0
1192.807   0.0455   0.0629   0.9361   0
1192.867   0.0265   0.0619   0.9358   0
1192.927   -0.0040   0.0482   0.9355   0
1192.986   0.0313   0.0606   0.9352   0
1193.046   0.0240   0.0515   0.9349   0
1193.106   0.0499   0.0602   0.9346   0
1193.166   0.0410   0.0652   0.9343   0
1193.226   0.0453   0.0629   0.9339   0
1193.286   0.1467   0.0769   0.9336   0
1193.345   0.1106   0.0713   0.9333   0
1193.405   0.0885   0.0678   0.9330   0
1193.465   0.1050   0.0782   0.9326   0
1193.525   0.2084   0.0867   0.9323   0
1193.585   0.2219   0.0939   0.9320   0
1193.645   0.2113   0.0875   0.9316   0
1193.704   0.2698   0.1029   0.9313   0
1193.764   0.5513   0.1364   0.9309   0
1193.824   0.3164   0.1010   0.9306   0
1193.884   0.4344   0.1134   0.9303   0
1193.944   0.3883   0.0965   0.9299   0
1194.003   0.3741   0.1119   0.9296   0
1194.063   0.3970   0.1355   0.9292   0
1194.123   0.5591   0.1177   0.9288   0
1194.183   0.6799   0.1307   0.9285   0
1194.243   0.3825   0.0958   0.9281   0
1194.302   0.4473   0.1164   0.9278   0
1194.362   0.7165   0.1445   0.9274   0
1194.422   0.3727   0.1121   0.9270   0
1194.482   0.5217   0.1202   0.9267   0
1194.542   0.4447   0.1075   0.9263   0
1194.602   0.5308   0.1186   0.9259   0
1194.661   0.3714   0.1251   0.9255   0
1194.721   0.6768   0.1252   0.9251   0
1194.781   0.4356   0.1088   0.9247   0
1194.841   0.3995   0.1061   0.9244   0
1194.901   0.1697   0.0894   0.9240   0
1194.961   0.3282   0.1069   0.9236   0
1195.020   0.3030   0.0958   0.9232   0
1195.080   0.1513   0.0779   0.9228   0
1195.140   0.1379   0.0699   0.9224   0
1195.200   0.0628   0.0641   0.9219   0
1195.260   0.0656   0.0708   0.9215   0
1195.319   0.1019   0.0730   0.9211   0
1195.379   0.0122   0.0504   0.9207   0
1195.439   0.0599   0.0626   0.9203   0
1195.499   0.0791   0.0639   0.9198   0
1195.559   0.0038   0.0523   0.9194   0
1195.619   0.0107   0.0504   0.9190   0
1195.678   0.0642   0.0665   0.9186   0
1195.738   0.1309   0.0696   0.9181   0
1195.798   0.0553   0.0613   0.9177   0
1195.858   0.3176   0.1040   0.9172   0
1195.918   0.2976   0.0953   0.9168   0
1195.978   0.3388   0.1001   0.9163   0
1196.037   0.2869   0.0946   0.9159   0
1196.097   0.3497   0.1046   0.9154   0
1196.157   0.3280   0.1100   0.9149   0
1196.217   0.3049   0.0982   0.9145   0
1196.277   0.4169   0.1100   0.9140   0
1196.336   0.3598   0.0990   0.9135   0
1196.396   0.5466   0.1211   0.9130   0
1196.456   0.3772   0.1226   0.9126   0
1196.516   0.3351   0.1078   0.9121   0
1196.576   0.4681   0.1165   0.9116   0
1196.635   0.5589   0.1104   0.9111   0
1196.695   0.4544   0.1129   0.9106   0
1196.755   0.4027   0.1141   0.9101   0
1196.815   0.6573   0.1287   0.9096   0
1196.875   0.5306   0.1186   0.9091   0
1196.935   0.4406   0.1031   0.9085   0
1196.994   0.4584   0.1122   0.9080   0
1197.054   0.4314   0.1297   0.9075   0
1197.114   0.4158   0.1148   0.9070   0
1197.174   0.5751   0.1212   0.9064   0
1197.234   0.6366   0.1161   0.9059   0
1197.294   0.7787   0.1375   0.9053   0
1197.353   0.7373   0.1421   0.9048   0
1197.413   0.6083   0.1293   0.9042   0
1197.473   0.6509   0.1293   0.9037   0
1197.533   0.8646   0.1336   0.9031   0
1197.593   0.7422   0.1338   0.9026   0
1197.652   0.8711   0.1520   0.9020   0
1197.712   0.6295   0.1336   0.9014   0
1197.772   0.5690   0.1300   0.9008   0
1197.832   0.5921   0.1134   0.9002   1
1197.892   0.5707   0.1264   0.8996   1
1197.952   1.0368   0.1678   0.8990   1
1198.011   0.8045   0.1409   0.8984   1
1198.071   0.3698   0.1024   0.8978   1
1198.131   0.5977   0.1197   0.8972   1
1198.191   0.9860   0.1468   0.8966   1
1198.251   0.9607   0.1608   0.8960   1
1198.310   0.8938   0.1426   0.8953   1
1198.370   0.7542   0.1305   0.8947   1
1198.430   0.5809   0.1203   0.8941   1
1198.490   0.8282   0.1433   0.8934   1
1198.550   0.7818   0.1521   0.8928   1
1198.610   0.5317   0.1224   0.8921   1
1198.669   0.6129   0.1323   0.8914   1
1198.729   0.6965   0.1293   0.8908   1
1198.789   0.5176   0.1182   0.8901   0
1198.849   0.8249   0.1503   0.8894   0
1198.909   0.6809   0.1245   0.8887   0
1198.969   0.8287   0.1388   0.8880   0
1199.028   0.5255   0.1073   0.8873   0
1199.088   0.5107   0.1307   0.8866   0
1199.148   0.6802   0.1381   0.8859   0
1199.208   0.5330   0.1236   0.8852   0
1199.268   0.6858   0.1270   0.8844   0
1199.327   0.3786   0.1016   0.8837   0
1199.387   0.4778   0.1174   0.8829   0
1199.447   0.4879   0.1250   0.8822   0
1199.507   0.3365   0.1025   0.8814   0
1199.567   0.7152   0.1279   0.8807   0
1199.626   0.3729   0.0960   0.8799   0
1199.686   0.6637   0.1322   0.8791   0
1199.746   0.6681   0.1389   0.8783   0
1199.806   0.6194   0.1310   0.8775   0
1199.866   0.5372   0.1276   0.8767   0
1199.926   0.4479   0.1031   0.8759   0
1199.985   0.7183   0.1383   0.8751   0
1200.045   0.7343   0.1355   0.8743   0
1200.105   0.6414   0.1262   0.8735   0
1200.165   0.3696   0.1034   0.8726   0
1200.225   0.4432   0.1049   0.8718   0
1200.285   0.4405   0.1100   0.8709   0
1200.344   0.3871   0.1153   0.8700   0
1200.404   0.4040   0.1059   0.8692   0
1200.464   0.4116   0.1072   0.8683   0
1200.524   0.2552   0.0872   0.8674   0
1200.584   0.2384   0.0945   0.8665   0
1200.643   0.4012   0.1169   0.8656   0
1200.703   0.2305   0.0898   0.8647   0
1200.763   0.2524   0.0972   0.8637   0
1200.823   0.2654   0.0845   0.8628   0
1200.883   0.3740   0.1056   0.8618   0
1200.943   0.3101   0.1054   0.8609   0
1201.002   0.3405   0.0955   0.8599   0
1201.062   0.3787   0.0984   0.8589   0
1201.122   0.2891   0.0892   0.8579   0
1201.182   0.3189   0.0955   0.8569   0
1201.242   0.2630   0.1011   0.8559   0
1201.302   0.1831   0.0824   0.8549   0
1201.361   0.1566   0.0771   0.8539   0
1201.421   0.1458   0.0706   0.8529   0
1201.481   0.1100   0.0695   0.8518   0
1201.541   0.1155   0.0807   0.8507   0
1201.601   0.0724   0.0630   0.8497   0
1201.660   0.0557   0.0582   0.8486   0
1201.720   0.0555   0.0539   0.8475   0
1201.780   0.0397   0.0556   0.8464   0
1201.840   0.0862   0.0700   0.8453   0
1201.900   0.0351   0.0557   0.8441   0
1201.959   0.0251   0.0531   0.8430   0
1202.019   0.0207   0.0476   0.8418   0
1202.079   0.0169   0.0530   0.8407   0
1202.139   0.0866   0.0706   0.8395   0
1202.199   0.0365   0.0543   0.8383   0
1202.259   0.0433   0.0576   0.8371   0
1202.318   0.0336   0.0510   0.8359   0
1202.378   0.0111   0.0480   0.8346   0
1202.438   0.0177   0.0534   0.8334   0
1202.498   0.0137   0.0474   0.8321   0
1202.558   0.0418   0.0561   0.8309   0
1202.618   0.0027   0.0434   0.8296   0
1202.677   0.0512   0.0604   0.8283   0
1202.737   0.0230   0.0566   0.8270   0
1202.797   0.0460   0.0553   0.8256   0
1202.857   0.0438   0.0577   0.8243   0
1202.917   0.0503   0.0537   0.8229   0
1202.976   0.0257   0.0530   0.8216   0
1203.036   0.0162   0.0568   0.8202   0
1203.096   0.0567   0.0578   0.8188   0
1203.156   0.0859   0.0667   0.8173   0
1203.216   0.1793   0.0795   0.8159   0
1203.276   0.1152   0.0781   0.8144   0
1203.335   0.2077   0.0913   0.8130   0
1203.395   0.1848   0.0813   0.8115   0
1203.455   0.1075   0.0723   0.8100   0
1203.515   0.2202   0.0752   0.8084   0
1203.575   0.3074   0.0910   0.8069   0
1203.634   0.3927   0.1090   0.8053   0
1203.694   0.4109   0.1036   0.8038   0
1203.754   0.3295   0.0965   0.8022   0
1203.814   0.3271   0.0898   0.8006   0
1203.874   0.5683   0.1147   0.7989   0
1203.934   0.3260   0.1125   0.7973   0
1203.993   0.3793   0.0992   0.7956   0
1204.053   0.2303   0.0858   0.7939   0
1204.113   0.3418   0.0907   0.7922   0
1204.173   0.2322   0.0826   0.7904   0
1204.233   0.4304   0.1122   0.7887   0
1204.292   0.5017   0.1133   0.7869   0
1204.352   0.3583   0.1044   0.7851   0
1204.412   0.3586   0.0929   0.7833   0
1204.472   0.3406   0.1004   0.7815   0
1204.532   0.2407   0.1009   0.7796   0
1204.592   0.3407   0.0975   0.7777   0
1204.651   0.3425   0.0932   0.7758   0
1204.711   0.4192   0.0988   0.7739   0
1204.771   0.3270   0.0973   0.7719   0
1204.831   0.2704   0.1008   0.7699   0
1204.891   0.2653   0.0947   0.7679   0
1204.950   0.3661   0.1047   0.7659   0
1205.010   0.2577   0.0830   0.7638   0
1205.070   0.4028   0.1064   0.7617   0
1205.130   0.4358   0.1246   0.7596   0
1205.190   0.3929   0.1086   0.7575   0
1205.250   0.4698   0.1063   0.7553   0
1205.309   0.3906   0.1000   0.7531   0
1205.369   0.3378   0.0976   0.7509   0
1205.429   0.3054   0.1146   0.7487   0
1205.489   0.5655   0.1228   0.7464   0
1205.549   0.2062   0.0955   0.7441   0
1205.609   0.2422   0.0877   0.7417   0
1205.668   0.3435   0.1037   0.7394   0
1205.728   0.3017   0.0984   0.7370   0
1205.788   0.2735   0.0913   0.7346   0
1205.848   0.2520   0.0926   0.7321   0
1205.908   0.2167   0.0769   0.7296   0
1205.967   0.1565   0.0782   0.7271   0
1206.027   0.0993   0.0709   0.7245   0
1206.087   0.0595   0.0614   0.7219   0
1206.147   0.0873   0.0655   0.7193   0
1206.207   0.0827   0.0611   0.7166   0
1206.266   0.0395   0.0545   0.7139   0
1206.326   0.0610   0.0652   0.7112   0
1206.386   0.0508   0.0567   0.7084   0
1206.446   0.0438   0.0568   0.7056   0
1206.506   0.0408   0.0507   0.7028   0
1206.566   0.0010   0.0463   0.6999   0
1206.625   0.0281   0.0590   0.6970   0
1206.685   0.0136   0.0517   0.6940   0
1206.745   0.0199   0.0541   0.6910   0
1206.805   0.0973   0.0628   0.6880   0
1206.865   0.0444   0.0589   0.6849   0
1206.925   0.0140   0.0556   0.6817   0
1206.984   0.0931   0.0660   0.6786   0
1207.044   0.1825   0.0787   0.6754   0
1207.104   0.1988   0.0766   0.6721   0
1207.164   0.1060   0.0724   0.6688   0
1207.224   0.1480   0.0841   0.6654   0
1207.283   0.1508   0.0793   0.6620   0
1207.343   0.2840   0.0900   0.6586   0
1207.403   0.2039   0.0736   0.6551   0
1207.463   0.3135   0.0905   0.6516   0
1207.523   0.0826   0.0764   0.6480   0
1207.583   0.1324   0.0747   0.6443   0
1207.642   0.1610   0.0847   0.6406   0
1207.702   0.2909   0.0861   0.6369   0
1207.762   0.2214   0.0814   0.6331   0
1207.822   0.3350   0.1033   0.6292   0
1207.882   0.2976   0.0934   0.6253   0
1207.942   0.1647   0.0796   0.6214   0
1208.001   0.1190   0.0708   0.6173   0
1208.061   0.1591   0.0745   0.6133   0
1208.121   0.0871   0.0702   0.6091   0
1208.181   0.0835   0.0668   0.6049   0
1208.241   0.1445   0.0745   0.6007   0
1208.300   0.0485   0.0539   0.5964   0
1208.360   0.0405   0.0541   0.5920   0
1208.420   0.0264   0.0551   0.5875   0
1208.480   0.0163   0.0490   0.5830   0
1208.540   0.0282   0.0515   0.5785   0
1208.599   0.0037   0.0417   0.5738   0
1208.659   -0.0139   0.0400   0.5691   0
1208.719   -0.0030   0.0480   0.5644   0
1208.779   -0.0047   0.0430   0.5595   0
1208.839   0.0212   0.0512   0.5546   0
1208.899   0.0288   0.0484   0.5497   0
1208.958   0.0736   0.0627   0.5446   0
1209.018   0.0618   0.0678   0.5395   0
1209.078   0.0412   0.0563   0.5343   0
1209.138   0.0891   0.0669   0.5290   0
1209.198   0.1035   0.0635   0.5237   0
1209.258   0.1016   0.0669   0.5183   0
1209.317   0.1182   0.0775   0.5128   0
1209.377   0.3442   0.0943   0.5072   0
1209.437   0.2231   0.0886   0.5016   0
1209.497   0.3289   0.0931   0.4958   0
1209.557   0.2353   0.0841   0.4900   0
1209.616   0.1654   0.0891   0.4842   0
1209.676   0.2888   0.0942   0.4782   0
1209.736   0.2699   0.0885   0.4722   0
1209.796   0.2937   0.0875   0.4660   0
1209.856   0.3943   0.1033   0.4598   0
1209.916   0.2483   0.1008   0.4535   0
1209.975   0.2511   0.0926   0.4471   0
1210.035   0.2162   0.0901   0.4407   0
1210.095   0.2863   0.0937   0.4341   0
1210.155   0.3558   0.0993   0.4275   0
1210.215   0.2829   0.1043   0.4208   0
1210.274   0.2220   0.0822   0.4140   0
1210.334   0.3533   0.1095   0.4071   0
1210.394   0.4066   0.0946   0.4001   1
1210.454   0.4027   0.1056   0.3931   1
1210.514   0.2432   0.1033   0.3859   1
1210.574   0.3727   0.0947   0.3787   1
1210.633   0.3627   0.1042   0.3714   1
1210.693   0.2412   0.0841   0.3640   1
1210.753   0.2874   0.1010   0.3565   1
1210.813   0.2681   0.0968   0.3490   1
1210.873   0.2760   0.1019   0.3414   1
1210.932   0.3905   0.1013   0.3337   1
1210.992   0.2977   0.0840   0.3259   1
1211.052   0.2554   0.0888   0.3180   1
1211.112   0.3224   0.1106   0.3101   1
1211.172   0.2504   0.0921   0.3021   1
1211.232   0.2913   0.0905   0.2941   1
1211.291   0.2694   0.0848   0.2860   1
1211.351   0.2822   0.0921   0.2778   1
1211.411   0.1775   0.0923   0.2696   1
1211.471   0.3370   0.1025   0.2613   1
1211.531   0.1171   0.0738   0.2530   1
1211.590   0.2756   0.0868   0.2447   1
1211.650   0.2851   0.0919   0.2363   1
1211.710   0.2323   0.0940   0.2278   1
1211.770   0.2163   0.0903   0.2194   1
1211.830   0.1523   0.0768   0.2110   1
1211.890   0.2558   0.0810   0.2025   1
1211.949   0.2014   0.0861   0.1941   1
1212.009   0.0701   0.0765   0.1857   1
1212.069   0.1615   0.0814   0.1773   1
1212.129   0.2056   0.0901   0.1689   1
1212.189   0.1584   0.0709   0.1606   1
1212.249   0.2335   0.0858   0.1523   1
1212.308   0.2097   0.0939   0.1441   1
1212.368   0.1448   0.0728   0.1360   1
1212.428   0.1350   0.0762   0.1280   1
1212.488   0.1030   0.0657   0.1201   1
1212.548   0.0722   0.0661   0.1123   1
1212.607   0.0746   0.0718   0.1046   1
1212.667   0.0822   0.0691   0.0972   1
1212.727   0.0622   0.0617   0.0899   1
1212.787   0.1045   0.0669   0.0827   1
1212.847   0.1051   0.0710   0.0758   1
1212.906   0.1005   0.0742   0.0692   1
1212.966   0.1098   0.0709   0.0627   1
1213.026   0.1246   0.0747   0.0566   1
1213.086   0.1559   0.0706   0.0507   1
1213.146   0.0563   0.0616   0.0451   1
1213.206   0.0562   0.0719   0.0398   1
1213.266   0.0464   0.0603   0.0349   1
1213.325   0.1620   0.0804   0.0303   1
1213.385   0.0266   0.0519   0.0260   1
1213.445   0.1131   0.0781   0.0221   1
1213.505   0.0403   0.0657   0.0185   0
1213.565   0.1144   0.0704   0.0153   0
1213.624   0.0846   0.0686   0.0125   0
1213.684   0.1592   0.0734   0.0100   0
1213.744   0.0648   0.0690   0.0079   0
1213.804   0.0909   0.0869   0.0060   0
1213.864   0.0837   0.0758   0.0045   0
1213.923   0.1146   0.0797   0.0033   0
1213.983   0.2220   0.0790   0.0023   0
1214.043   0.2141   0.0879   0.0015   0
1214.103   0.2219   0.1020   0.0008   0
1214.163   0.2642   0.0962   0.0003   0
1214.223   0.2863   0.1073   0.0001   0
1214.282   0.2346   0.0868   0.0000   0
1214.342   0.4316   0.1114   0.0000   0
1214.402   0.7181   0.1426   0.0000   0
1214.462   0.5802   0.1385   0.0000   0
1214.522   1.1239   0.1804   0.0000   0
1214.582   1.5476   0.2038   -0.0000   0
1214.641   3.2608   0.3677   0.0000   0
1214.701   5.5664   0.6859   -0.0000   0
1214.761   10.2194   0.9746   -0.0000   0
1214.821   24.1271   1.3624   -0.0000   0
1214.881   106.9151   1.6686   -0.0000   0
1214.940   235.1784   2.2563   -0.0000   0
1215.000   371.8251   2.9313   -0.0000   0
1215.060   518.1361   3.0931   -0.0000   0
1215.120   702.0275   3.5172   -0.0000   0
1215.180   913.0715   3.6174   -0.0000   0
1215.240   1069.9253   4.2010   -0.0000   0
1215.299   1160.3528   4.7746   -0.0000   0
1215.359   1286.9281   4.5642   -0.0000   0
1215.419   1402.5171   4.7386   -0.0000   0
1215.479   1496.2019   4.5434   -0.0000   0
1215.539   1541.0693   4.9633   -0.0000   0
1215.599   1542.4419   5.4266   -0.0000   0
1215.658   1505.5365   4.9088   -0.0000   0
1215.718   1450.7228   4.8411   -0.0000   0
1215.778   1329.0667   4.2881   -0.0000   0
1215.838   1199.8997   4.4051   -0.0000   0
1215.898   1049.6138   4.5237   -0.0000   0
1215.957   923.6720   3.9018   -0.0000   0
1216.017   743.6472   3.5662   -0.0000   0
1216.077   555.4064   2.9147   -0.0000   0
1216.137   373.5250   2.6346   -0.0000   0
1216.197   248.2735   2.4237   -0.0000   0
1216.256   150.0975   1.8091   -0.0000   0
1216.316   59.7465   1.3780   -0.0000   0
1216.376   13.9091   0.9026   -0.0000   0
1216.436   4.4074   0.6273   -0.0000   0
1216.496   1.8644   0.4307   0.0000   0
1216.556   1.4792   0.2153   -0.0000   0
1216.615   1.0062   0.1680   -0.0000   0
1216.675   0.6482   0.1318   0.0000   0
1216.735   0.4216   0.1251   -0.0000   0
1216.795   0.3640   0.1250   -0.0000   0
1216.855   0.3139   0.1052   -0.0000   0
1216.915   0.3888   0.1133   -0.0000   0
1216.974   0.3341   0.0989   -0.0000   0
1217.034   0.2118   0.0905   -0.0000   0
1217.094   0.1735   0.1002   -0.0000   0
1217.154   0.1514   0.0834   -0.0000   0
1217.214   0.1249   0.0811   -0.0000   0
1217.273   0.1262   0.0709   -0.0000   0
1217.333   0.0939   0.0746   -0.0000   0
1217.393   0.2482   0.0933   -0.0000   0
1217.453   0.1358   0.0790   -0.0000   0
1217.513   0.1690   0.0793   0.0000   0
1217.573   0.0195   0.0546   -0.0000   0
1217.632   0.0695   0.0636   -0.0000   0
1217.692   0.0743   0.0707   -0.0000   0
1217.752   0.0462   0.0630   -0.0000   0
1217.812   0.0342   0.0584   -0.0000   0
1217.872   0.0855   0.0634   -0.0000   0
1217.931   0.1245   0.0713   -0.0000   0
1217.991   0.0502   0.0673   -0.0000   0
1218.051   0.0581   0.0602   -0.0000   0
1218.111   0.0414   0.0563   -0.0000   1
1218.171   0.0386   0.0560   -0.0000   1
1218.231   0.0506   0.0600   -0.0000   1
1218.290   0.0008   0.0526   -0.0000   1
1218.350   0.0137   0.0517   -0.0000   1
1218.410   -0.0036   0.0469   -0.0000   1
1218.470   0.0253   0.0500   -0.0000   1
1218.530   0.0008   0.0468   -0.0000   1
1218.589   0.0601   0.0693   -0.0000   1
1218.649   0.0383   0.0556   0.0000   1
1218.709   -0.0097   0.0437   0.0000   1
1218.769   0.0353   0.0529   0.0000   1
1218.829   0.0357   0.0534   0.0000   1
1218.889   0.0080   0.0526   0.0000   1
1218.948   0.0053   0.0493   0.0000   1
1219.008   0.0453   0.0624   0.0000   1
1219.068   0.0161   0.0439   0.0000   1
1219.128   -0.0080   0.0450   0.0000   1
1219.188   0.0295   0.0601   0.0000   1
1219.247   -0.0074   0.0445   0.0000   1
1219.307   0.0264   0.0542   0.0000   1
1219.367   -0.0223   0.0384   0.0000   1
1219.427   0.0575   0.0561   0.0000   1
1219.487   -0.0273   0.0415   0.0000   1
1219.547   0.0071   0.0490   0.0001   1
1219.606   -0.0062   0.0556   0.0001   1
1219.666   0.0093   0.0478   0.0002   1
1219.726   -0.0059   0.0437   0.0003   1
1219.786   0.0259   0.0555   0.0005   1
1219.846   0.0357   0.0532   0.0008   1
1219.906   -0.0053   0.0434   0.0012   1
1219.965   0.0408   0.0521   0.0016   1
1220.025   -0.0017   0.0604   0.0023   1
1220.085   0.0431   0.0644   0.0030   1
1220.145   0.0195   0.0488   0.0040   1
1220.205   0.0704   0.0634   0.0052   1
1220.264   0.0361   0.0633   0.0066   1
1220.324   0.0664   0.0635   0.0082   1
1220.384   0.0342   0.0586   0.0101   1
1220.444   0.1025   0.0673   0.0123   1
1220.504   0.0647   0.0614   0.0147   1
1220.563   0.0660   0.0544   0.0175   1
1220.623   0.1707   0.0751   0.0205   1
1220.683   0.0872   0.0690   0.0238   1
1220.743   0.1119   0.0631   0.0275   1
1220.803   0.1081   0.0701   0.0314   1
1220.863   0.1354   0.0645   0.0357   1
1220.922   0.1872   0.0767   0.0402   1
1220.982   0.1146   0.0737   0.0450   1
1221.042   0.0332   0.0512   0.0501   1
1221.102   0.1492   0.0735   0.0555   1
1221.162   0.0784   0.0570   0.0611   1
1221.222   0.1646   0.0733   0.0669   1
1221.281   0.1074   0.0758   0.0730   1
1221.341   0.2523   0.0889   0.0793   1
1221.401   0.1515   0.0717   0.0858   1
1221.461   0.1745   0.0681   0.0925   1
1221.521   0.2046   0.0794   0.0994   1
1221.580   0.1459   0.0819   0.1065   1
1221.640   0.1601   0.0732   0.1137   1
1221.700   0.3855   0.1017   0.1210   1
1221.760   0.2508   0.0883   0.1285   1
1221.820   0.1970   0.0894   0.1361   1
1221.880   0.2487   0.0962   0.1437   1
1221.939   0.2322   0.0782   0.1515   1
1221.999   0.1844   0.0811   0.1593   1
1222.059   0.1343   0.0700   0.1673   1
1222.119   0.1174   0.0704   0.1752   1
1222.179   0.2847   0.0985   0.1833   1
1222.239   0.2821   0.0911   0.1913   1
1222.298   0.2280   0.0848   0.1994   1
1222.358   0.3061   0.0824   0.2075   1
1222.418   0.1733   0.0790   0.2156   1
1222.478   0.3963   0.1063   0.2237   1
1222.538   0.3570   0.0974   0.2318   1
1222.597   0.2804   0.0973   0.2399   1
1222.657   0.3575   0.0834   0.2479   1
1222.717   0.3859   0.0983   0.2560   1
1222.777   0.3575   0.1047   0.2640   1
1222.837   0.2637   0.0910   0.2720   1
1222.896   0.3829   0.0973   0.2799   1
1222.956   0.4384   0.0900   0.2878   1
1223.016   0.2719   0.0872   0.2957   1
1223.076   0.2728   0.0960   0.3035   1
1223.136   0.2194   0.0923   0.3113   1
1223.196   0.3824   0.0934   0.3189   1
1223.255   0.2942   0.0831   0.3266   1
1223.315   0.3678   0.0994   0.3341   1
1223.375   0.3398   0.1042   0.3416   1
1223.435   0.3735   0.0955   0.3491   1
1223.495   0.2883   0.0943   0.3565   1
1223.555   0.4986   0.0987   0.3637   1
1223.614   0.2557   0.0839   0.3710   1
1223.674   0.4626   0.1174   0.3781   1
1223.734   0.3301   0.0907   0.3852   1
1223.794   0.4745   0.1005   0.3922   1
1223.854   0.4309   0.0883   0.3991   1
1223.913   0.4551   0.1002   0.4059   1
1223.973   0.2507   0.0979   0.4127   1
1224.033   0.3612   0.1028   0.4194   1
1224.093   0.3288   0.0938   0.4260   1
1224.153   0.3987   0.0879   0.4325   1
1224.213   0.3671   0.1001   0.4390   1
1224.272   0.4939   0.1137   0.4454   1
1224.332   0.5151   0.1044   0.4516   1
1224.392   0.4497   0.1045   0.4579   1
1224.452   0.4905   0.1009   0.4640   1
1224.512   0.4290   0.1023   0.4701   1
1224.571   0.3673   0.1040   0.4760   1
1224.631   0.4516   0.0976   0.4819   1
1224.691   0.4710   0.1087   0.4878   1
1224.751   0.4642   0.0967   0.4935   1
1224.811   0.5666   0.1055   0.4992   1
1224.871   0.4543   0.1128   0.5048   1
1224.930   0.4443   0.1106   0.5103   1
1224.990   0.4781   0.1063   0.5158   1
1225.050   0.4236   0.0974   0.5212   1
1225.110   0.5368   0.1106   0.5265   1
1225.170   0.4645   0.1111   0.5317   1
1225.229   0.5413   0.1174   0.5369   1
1225.289   0.4716   0.1094   0.5420   1
1225.349   0.4965   0.0989   0.5470   1
1225.409   0.5093   0.1063   0.5519   1
1225.469   0.5028   0.1169   0.5568   1
1225.529   0.8795   0.1292   0.5616   1
1225.588   0.5700   0.1192   0.5664   1
1225.648   0.7331   0.1129   0.5711   1
1225.708   0.5773   0.1083   0.5757   1
1225.768   0.5900   0.1193   0.5803   1
1225.828   0.8742   0.1332   0.5848   1
1225.887   0.9322   0.1342   0.5892   1
1225.947   0.6416   0.1113   0.5936   1
1226.007   0.6382   0.1101   0.5979   1
1226.067   0.6760   0.1357   0.6022   1
1226.127   0.7370   0.1226   0.6063   1
1226.187   0.6931   0.1235   0.6105   1
1226.246   0.7978   0.1112   0.6146   1
1226.306   0.6880   0.1234   0.6186   1
1226.366   0.5198   0.1233   0.6226   1
1226.426   0.5388   0.1088   0.6265   0
1226.486   0.7231   0.1328   0.6303   0
1226.546   0.6708   0.1065   0.6342   0
1226.605   0.7122   0.1276   0.6379   0
1226.665   0.4858   0.1163   0.6416   0
1226.725   0.6640   0.1195   0.6453   0
1226.785   0.7480   0.1224   0.6489   0
1226.845   0.6781   0.1102   0.6524   0
1226.904   0.7948   0.1294   0.6559   0
1226.964   0.7020   0.1366   0.6594   0
1227.024   0.7010   0.1204   0.6628   0
1227.084   0.8232   0.1275   0.6662   0
1227.144   0.6780   0.1168   0.6695   0
1227.203   0.6301   0.1230   0.6728   0
1227.263   0.7079   0.1386   0.6760   0
1227.323   0.7227   0.1265   0.6792   0
1227.383   0.7338   0.1276   0.6823   0
1227.443   0.6955   0.1216   0.6854   0
1227.503   0.7712   0.1287   0.6885   0
1227.562   0.7920   0.1343   0.6915   0
1227.622   0.6105   0.1184   0.6945   0
1227.682   0.6540   0.1278   0.6974   0
1227.742   0.7037   0.1103   0.7003   0
1227.802   0.4959   0.1108   0.7032   0
1227.862   0.6288   0.1279   0.7060   0
1227.921   0.5121   0.1115   0.7088   0
1227.981   0.5225   0.1075   0.7116   0
1228.041   0.6547   0.1062   0.7143   0
1228.101   0.6686   0.1227   0.7170   0
1228.161   0.6803   0.1325   0.7196   0
1228.220   0.6294   0.1134   0.7222   0
1228.280   0.5925   0.1124   0.7248   0
1228.340   0.7482   0.1148   0.7273   0
1228.400   0.5697   0.1134   0.7298   0
1228.460   0.7540   0.1406   0.7323   0
1228.520   0.6149   0.1190   0.7348   0
1228.579   0.5976   0.1143   0.7372   0
1228.639   0.5895   0.1081   0.7396   0
1228.699   0.6811   0.1206   0.7419   0
1228.759   0.8392   0.1322   0.7442   0
1228.819   0.7232   0.1188   0.7465   0
1228.879   0.6555   0.1150   0.7488   0
1228.938   0.5386   0.1034   0.7510   0
1228.998   0.5974   0.1122   0.7533   0
1229.058   0.6363   0.1273   0.7554   0
1229.118   0.4824   0.1071   0.7576   0
1229.178   0.5171   0.1072   0.7597   0
1229.237   0.7795   0.1109   0.7618   0
1229.297   0.5809   0.1111   0.7639   0
1229.357   0.7720   0.1344   0.7659   0
1229.417   0.6712   0.1158   0.7680   0
1229.477   0.5709   0.1108   0.7700   0
1229.536   0.6369   0.1122   0.7719   0
1229.596   0.5640   0.1099   0.7739   0
1229.656   0.5404   0.1206   0.7758   0
1229.716   0.5220   0.1128   0.7777   0
1229.776   0.5057   0.1058   0.7796   0
1229.836   0.3454   0.0982   0.7815   0
1229.895   0.6869   0.1128   0.7833   0
1229.955   0.5777   0.1241   0.7851   0
1230.015   0.6954   0.1248   0.7869   0
1230.075   0.8224   0.1293   0.7887   0
1230.135   0.5975   0.1095   0.7904   0
1230.195   0.9772   0.1301   0.7922   0
1230.254   0.4767   0.1288   0.7939   0
1230.314   0.5510   0.1158   0.7956   0
1230.374   0.5148   0.1098   0.7972   0
1230.434   0.7073   0.1133   0.7989   0
1230.494   0.7352   0.1243   0.8005   0
1230.553   0.6022   0.1242   0.8021   0
1230.613   0.6072   0.1207   0.8037   0
1230.673   0.7933   0.1235   0.8053   0
1230.733   0.7263   0.1088   0.8068   0
1230.793   0.2961   0.0998   0.8084   0
1230.853   0.4760   0.1134   0.8099   0
1230.912   0.3705   0.1053   0.8114   0
1230.972   0.3823   0.1010   0.8129   0
1231.032   0.6488   0.1050   0.8144   0
1231.092   0.5939   0.1122   0.8158   0
1231.152   0.5582   0.1213   0.8172   0
1231.211   0.5778   0.1122   0.8187   0
1231.271   0.6336   0.1113   0.8201   0
1231.331   0.5337   0.0978   0.8215   0
1231.391   0.4924   0.1020   0.8228   0
1231.451   0.7816   0.1322   0.8242   0
1231.511   0.6492   0.1169   0.8255   0
1231.570   0.3673   0.0965   0.8269   0
1231.630   0.7075   0.1085   0.8282   0
1231.690   0.5416   0.1073   0.8295   0
1231.750   0.3432   0.1000   0.8308   0
1231.810   0.4768   0.1112   0.8320   0
1231.870   0.2340   0.0834   0.8333   0
1231.929   0.4642   0.1009   0.8345   0
1231.989   0.5096   0.1060   0.8358   0
1232.049   0.5244   0.1186   0.8370   0
1232.109   0.5057   0.1071   0.8382   0
1232.169   0.5327   0.1049   0.8394   0
1232.228   0.3755   0.0908   0.8406   0
1232.288   0.4061   0.1002   0.8417   0
1232.348   0.3225   0.1165   0.8429   0
1232.408   0.4548   0.1001   0.8440   0
1232.468   0.4930   0.1026   0.8452   0
1232.527   0.3893   0.0924   0.8463   0
1232.587   0.3502   0.0916   0.8474   0
1232.647   0.4115   0.1052   0.8485   0
1232.707   0.3152   0.0857   0.8496   0
1232.767   0.3354   0.0942   0.8506   0
1232.827   0.4617   0.0989   0.8517   0
1232.886   0.4809   0.1006   0.8527   0
1232.946   0.2602   0.1028   0.8538   0
1233.006   0.2884   0.0960   0.8548   0
1233.066   0.6635   0.1174   0.8558   0
1233.126   0.6189   0.1036   0.8568   0
1233.186   0.4336   0.1017   0.8578   0
1233.245   0.5972   0.1258   0.8588   0
1233.305   0.5301   0.1116   0.8598   0
1233.365   0.6965   0.1154   0.8608   0
1233.425   0.6967   0.1074   0.8617   0
1233.485   0.6474   0.1143   0.8627   0
1233.544   0.5340   0.1153   0.8636   0
1233.604   0.5232   0.1087   0.8645   0
1233.664   0.6051   0.1117   0.8654   0
1233.724   0.6829   0.1090   0.8664   0
1233.784   0.6703   0.1181   0.8673   0
1233.844   0.3388   0.1041   0.8682   0
1233.903   0.4852   0.1046   0.8690   0
1233.963   0.5060   0.1154   0.8699   0
1234.023   0.7341   0.1124   0.8708   0
1234.083   0.7098   0.1233   0.8716   0
1234.143   0.4518   0.1111   0.8725   0
1234.203   0.5198   0.1075   0.8733   0
1234.262   0.6552   0.1126   0.8742   0
1234.322   0.7639   0.1121   0.8750   0
1234.382   0.6379   0.1163   0.8758   0
1234.442   0.6970   0.1301   0.8766   0
1234.502   0.6798   0.1133   0.8774   0
1234.561   0.5208   0.1064   0.8782   0
1234.621   0.5623   0.1070   0.8790   0
1234.681   0.5047   0.0992   0.8798   0
1234.741   0.7359   0.1287   0.8806   0
1234.801   0.5163   0.1043   0.8813   0
1234.860   0.4757   0.1114   0.8821   0
1234.920   0.6581   0.1040   0.8828   0
1234.980   0.4678   0.1055   0.8836   0
1235.040   0.7055   0.1356   0.8843   0
1235.100   0.4827   0.1013   0.8850   0
1235.160   0.6978   0.1159   0.8858   0
1235.219   0.4906   0.0987   0.8865   0
1235.279   0.4654   0.1105   0.8872   0
1235.339   0.8269   0.1367   0.8879   0
1235.399   0.3430   0.0877   0.8886   0
1235.459   0.7028   0.1177   0.8893   0
1235.519   0.5035   0.0975   0.8900   0
1235.578   0.3558   0.0980   0.8906   0
1235.638   0.5449   0.1121   0.8913   0
1235.698   0.4194   0.1005   0.8920   0
1235.758   0.5569   0.1053   0.8926   0
1235.818   0.7162   0.1070   0.8933   0
1235.877   0.4380   0.0986   0.8939   0
1235.937   0.3761   0.1025   0.8946   0
1235.997   0.3456   0.0964   0.8952   0
1236.057   0.4608   0.1008   0.8959   0
1236.117   0.4747   0.0975   0.8965   0
1236.177   0.5249   0.1035   0.8971   0
1236.236   0.4073   0.1121   0.8977   0
1236.296   0.4617   0.0988   0.8983   0
1236.356   0.3957   0.0988   0.8989   0
1236.416   0.4173   0.0942   0.8995   0
1236.476   0.4729   0.1116   0.9001   0
1236.535   0.4474   0.1144   0.9007   0
1236.595   0.4255   0.1050   0.9013   0
1236.655   0.5727   0.1089   0.9019   0
1236.715   0.3836   0.0943   0.9024   0
1236.775   0.4440   0.1069   0.9030   0
1236.835   0.5062   0.1145   0.9036   0
1236.894   0.5270   0.1070   0.9041   0
1236.954   0.4762   0.1079   0.9047   0
1237.014   0.5124   0.0990   0.9052   0
1237.074   0.4066   0.1027   0.9058   0
1237.134   0.3526   0.1060   0.9063   0
1237.193   0.5489   0.1109   0.9069   0
1237.253   0.7011   0.1136   0.9074   0
1237.313   0.3596   0.0890   0.9079   0
1237.373   0.4388   0.0996   0.9084   0
1237.433   0.5282   0.1117   0.9090   0
1237.493   0.6845   0.1163   0.9095   0
1237.552   0.5890   0.1104   0.9100   0
1237.612   0.5531   0.1010   0.9105   0
1237.672   0.5418   0.1059   0.9110   0
1237.732   0.4631   0.1130   0.9115   0
1237.792   0.4362   0.1077   0.9120   0
1237.851   0.3592   0.0973   0.9125   0
1237.911   0.4519   0.0932   0.9129   0
1237.971   0.5789   0.1056   0.9134   0
1238.031   0.5196   0.1168   0.9139   0
1238.091   0.5016   0.0996   0.9144   0
1238.151   0.3900   0.0964   0.9148   0
1238.210   0.3357   0.0824   0.9153   0
1238.270   0.4790   0.1027   0.9158   0
1238.330   0.3787   0.1027   0.9162   0
1238.390   0.3096   0.0941   0.9167   0
1238.450   0.4921   0.1033   0.9171   0
1238.510   0.3882   0.0868   0.9176   0
1238.569   0.6285   0.1072   0.9180   0
1238.629   0.5671   0.1232   0.9185   0
1238.689   0.3453   0.0990   0.9189   0
1238.749   0.4395   0.1051   0.9193   0
1238.809   0.2952   0.0820   0.9198   0
1238.868   0.2982   0.0960   0.9202   0
1238.928   0.4883   0.1159   0.9206   0
1238.988   0.5813   0.1112   0.9210   0
1239.048   0.5777   0.1083   0.9214   0
1239.108   0.4239   0.0886   0.9219   0
1239.167   0.5203   0.1084   0.9223   0
1239.227   0.3867   0.1069   0.9227   0
1239.287   0.5583   0.1044   0.9231   0
1239.347   0.4764   0.1034   0.9235   0
1239.407   0.5265   0.0984   0.9239   0
1239.467   0.5405   0.1054   0.9243   0
1239.526   0.3013   0.1012   0.9247   0
1239.586   0.4243   0.0993   0.9250   0
1239.646   0.3473   0.0915   0.9254   0
1239.706   0.5167   0.1024   0.9258   0
1239.766   0.4835   0.1100   0.9262   0
1239.826   0.6477   0.1214   0.9266   0
1239.885   0.4755   0.1032   0.9269   0
1239.945   0.2383   0.0853   0.9273   0
1240.005   0.3945   0.0894   0.9277   0
1240.065   0.4171   0.0936   0.9280   0
1240.125   0.6953   0.1251   0.9284   0
1240.184   0.4229   0.0980   0.9288   0
1240.244   0.5100   0.1071   0.9291   0
1240.304   0.4344   0.0910   0.9295   0
1240.364   0.5446   0.1021   0.9298   0
1240.424   0.3352   0.1039   0.9302   0
1240.484   0.5989   0.1181   0.9305   0
1240.543   0.4403   0.0979   0.9309   0
1240.603   0.5014   0.0988   0.9312   0
1240.663   0.3893   0.1011   0.9315   0
1240.723   0.5303   0.1152   0.9319   0
1240.783   0.4640   0.1033   0.9322   0
1240.843   0.4576   0.0953   0.9326   0
1240.902   0.3725   0.0876   0.9329   0
1240.962   0.3183   0.0890   0.9332   0
1241.022   0.4159   0.1092   0.9335   0
1241.082   0.3624   0.0958   0.9339   0
1241.142   0.4337   0.0990   0.9342   0
1241.201   0.3671   0.0865   0.9345   0
1241.261   0.2837   0.0829   0.9348   0
1241.321   0.5903   0.1259   0.9351   0
1241.381   0.4302   0.1008   0.9354   0
1241.441   0.5242   0.1069   0.9357   0
1241.500   0.4315   0.0890   0.9360   0
1241.560   0.7726   0.1198   0.9364   0
1241.620   0.6800   0.1305   0.9367   0
1241.680   0.5827   0.1162   0.9370   0
1241.740   0.7936   0.1281   0.9373   0
1241.800   0.8633   0.1197   0.9375   0
1241.859   0.5246   0.1097   0.9378   0
1241.919   0.7011   0.1270   0.9381   0
1241.979   0.7315   0.1169   0.9384   0
1242.039   0.5109   0.1086   0.9387   0
1242.099   0.6010   0.1110   0.9390   0
1242.159   0.9245   0.1328   0.9393   0
1242.218   0.5000   0.1210   0.9396   0
1242.278   0.6031   0.1142   0.9398   0
1242.338   0.6109   0.1124   0.9401   0
1242.398   0.5494   0.1054   0.9404   0
1242.458   0.6693   0.1185   0.9407   0
1242.517   0.5379   0.1146   0.9409   0
1242.577   0.5959   0.1132   0.9412   0
1242.637   0.6234   0.1151   0.9415   0
1242.697   0.6479   0.1016   0.9417   0
1242.757   0.7625   0.1245   0.9420   0
1242.817   0.5729   0.1194   0.9423   0
1242.876   0.5937   0.1150   0.9425   0
1242.936   0.6763   0.1131   0.9428   0
1242.996   0.7227   0.1102   0.9431   0
1243.056   0.8493   0.1324   0.9433   0
1243.116   0.4844   0.1230   0.9436   0
1243.175   1.0018   0.1299   0.9438   1
1243.235   0.7464   0.1208   0.9441   1
1243.295   0.9558   0.1217   0.9443   1
1243.355   0.6698   0.1165   0.9446   1
1243.415   1.0066   0.1461   0.9448   1
1243.475   0.8158   0.1292   0.9451   1
1243.534   0.9159   0.1362   0.9453   1
1243.594   0.7954   0.1114   0.9455   1
1243.654   0.8270   0.1268   0.9458   1
1243.714   0.7335   0.1432   0.9460   1
1243.774   0.7596   0.1217   0.9463   1
1243.833   0.9260   0.1299   0.9465   1
1243.893   0.7881   0.1159   0.9467   1
1243.953   1.0283   0.1359   0.9470   1
1244.013   1.0154   0.1489   0.9472   1
1244.073   1.2353   0.1418   0.9474   1
1244.133   0.6814   0.1260   0.9476   1
1244.192   0.8708   0.1203   0.9479   1
1244.252   1.0981   0.1485   0.9481   1
1244.312   1.4244   0.1788   0.9483   1
1244.372   0.8798   0.1331   0.9485   1
1244.432   0.9153   0.1281   0.9488   1
1244.491   0.9009   0.1222   0.9490   1
1244.551   1.1079   0.1373   0.9492   1
1244.611   0.8767   0.1437   0.9494   1
1244.671   0.7899   0.1231   0.9496   1
1244.731   0.7873   0.1263   0.9498   1
1244.791   1.0660   0.1257   0.9501   1
1244.850   0.6735   0.1197   0.9503   1
1244.910   0.5960   0.1188   0.9505   1
1244.970   0.7049   0.1196   0.9507   1
1245.030   0.7455   0.1213   0.9509   1
1245.090   1.1069   0.1268   0.9511   1
1245.150   0.7119   0.1179   0.9513   1
1245.209   1.2050   0.1601   0.9515   1
1245.269   0.8895   0.1318   0.9517   0
1245.329   1.3320   0.1486   0.9519   0
1245.389   0.8618   0.1176   0.9521   0
1245.449   0.9505   0.1318   0.9523   0
1245.508   0.9096   0.1445   0.9525   0
1245.568   1.0052   0.1347   0.9527   0
1245.628   1.2090   0.1442   0.9529   0
1245.688   1.2468   0.1379   0.9531   0
1245.748   1.2196   0.1504   0.9533   0
1245.807   1.0731   0.1551   0.9535   0
1245.867   1.2268   0.1455   0.9537   0
1245.927   1.0949   0.1405   0.9538   0
1245.987   1.1865   0.1329   0.9540   0
1246.047   1.2671   0.1563   0.9542   0
1246.107   1.4976   0.1746   0.9544   0
1246.167   0.8873   0.1307   0.9546   0
1246.226   1.1486   0.1441   0.9548   0
1246.286   1.3266   0.1383   0.9550   0
1246.346   1.4461   0.1568   0.9551   0
1246.406   1.6188   0.1727   0.9553   0
1246.466   1.3177   0.1535   0.9555   0
1246.525   1.4300   0.1599   0.9557   0
1246.585   1.1580   0.1269   0.9558   0
1246.645   1.2878   0.1474   0.9560   0
1246.705   1.3987   0.1702   0.9562   0
1246.765   1.1711   0.1460   0.9564   0
1246.824   1.3259   0.1494   0.9565   0
1246.884   1.1998   0.1368   0.9567   0
1246.944   1.0928   0.1450   0.9569   0
1247.004   1.1501   0.1558   0.9571   0
1247.064   1.2718   0.1473   0.9572   0
1247.124   1.2321   0.1525   0.9574   0
1247.183   1.1910   0.1365   0.9576   0
1247.243   1.0118   0.1373   0.9577   0
1247.303   1.2218   0.1547   0.9579   0
1247.363   1.0235   0.1358   0.9581   0
1247.423   1.1298   0.1431   0.9582   0
1247.483   1.1306   0.1320   0.9584   0
1247.542   1.0522   0.1415   0.9585   0
1247.602   0.9738   0.1469   0.9587   0
1247.662   1.1726   0.1422   0.9589   0
1247.722   0.9303   0.1334   0.9590   0
1247.782   1.1931   0.1325   0.9592   0
1247.841   1.0087   0.1379   0.9593   0
1247.901   0.8470   0.1407   0.9595   0
1247.961   1.0233   0.1379   0.9596   0
1248.021   1.0670   0.1422   0.9598   0
1248.081   1.0793   0.1319   0.9599   0
1248.141   0.7845   0.1379   0.9601   0
1248.200   0.7789   0.1374   0.9602   0
1248.260   0.8621   0.1333   0.9604   0
1248.320   1.0127   0.1400   0.9605   0
1248.380   1.1588   0.1334   0.9607   0
1248.440   1.0138   0.1356   0.9608   0
1248.499   0.9757   0.1458   0.9610   0
1248.559   1.0123   0.1355   0.9611   0
1248.619   0.8119   0.1222   0.9613   0
1248.679   0.8519   0.1130   0.9614   0
1248.739   0.9175   0.1310   0.9616   0
1248.799   0.6318   0.1230   0.9617   0
1248.858   0.9599   0.1334   0.9619   0
1248.918   0.5269   0.1091   0.9620   0
1248.978   0.8111   0.1184   0.9621   0
1249.038   0.5454   0.1141   0.9623   0
1249.098   0.6514   0.1217   0.9624   0
1249.157   0.4750   0.1074   0.9625   0
1249.217   0.6320   0.1155   0.9627   0
1249.277   0.7761   0.1172   0.9628   0
1249.337   0.5632   0.1128   0.9630   0
1249.397   0.6595   0.1247   0.9631   0
1249.457   0.4699   0.1073   0.9632   0
1249.516   0.4123   0.1052   0.9634   0
1249.576   0.6096   0.1025   0.9635   0
1249.636   0.5506   0.1089   0.9636   0
1249.696   0.4121   0.1050   0.9638   0
1249.756   0.5522   0.1052   0.9639   0
1249.815   0.5160   0.0992   0.9640   0
1249.875   0.5893   0.1032   0.9641   0
1249.935   0.4595   0.0991   0.9643   0
1249.995   0.5632   0.1165   0.9644   0
1250.055   0.7032   0.1194   0.9645   0
1250.115   0.4878   0.1077   0.9647   0
1250.174   0.5419   0.0963   0.9648   0
1250.234   0.7299   0.1150   0.9649   0
1250.294   0.4790   0.1140   0.9650   0
1250.354   0.6088   0.1115   0.9652   0
1250.414   0.6307   0.1126   0.9653   0
1250.474   0.7434   0.1098   0.9654   0
1250.533   0.4887   0.1040   0.9655   0
1250.593   0.6573   0.1201   0.9656   0
1250.653   0.6991   0.1236   0.9658   0
1250.713   0.5807   0.1149   0.9659   0
1250.773   0.6966   0.1184   0.9660   0
1250.832   0.9159   0.1306   0.9661   0
1250.892   0.9172   0.1452   0.9662   0
1250.952   0.8429   0.1252   0.9664   0
1251.012   0.7178   0.1251   0.9665   0
1251.072   1.0164   0.1263   0.9666   0
1251.131   0.8015   0.1336   0.9667   0
1251.191   1.1476   0.1521   0.9668   0
1251.251   1.2504   0.1466   0.9669   0
1251.311   0.8266   0.1298   0.9671   0
1251.371   1.0725   0.1279   0.9672   0
1251.431   1.0006   0.1336   0.9673   0
1251.490   0.8492   0.1369   0.9674   0
1251.550   1.0412   0.1327   0.9675   0
1251.610   1.0747   0.1380   0.9676   0
1251.670   1.1905   0.1334   0.9677   0
1251.730   0.8378   0.1275   0.9678   0
1251.790   1.0833   0.1575   0.9679   0
1251.849   0.9496   0.1364   0.9681   0
1251.909   1.1742   0.1435   0.9682   0
1251.969   0.9294   0.1219   0.9683   0
1252.029   0.7682   0.1214   0.9684   0
1252.089   0.7748   0.1280   0.9685   0
1252.148   1.1596   0.1414   0.9686   0
1252.208   0.7764   0.1234   0.9687   0
1252.268   0.5756   0.1075   0.9688   0
1252.328   0.8684   0.1241   0.9689   0
1252.388   0.8901   0.1410   0.9690   0
1252.448   0.5468   0.1130   0.9691   0
1252.507   0.9346   0.1327   0.9692   0
1252.567   0.6148   0.0989   0.9693   0
1252.627   0.5314   0.1040   0.9694   0
1252.687   0.7591   0.1378   0.9695   0
1252.747   0.5668   0.1067   0.9696   0
1252.807   0.4914   0.1030   0.9697   0
1252.866   0.2979   0.0879   0.9698   0
1252.926   0.3811   0.0899   0.9699   0
1252.986   0.4941   0.1123   0.9700   0
1253.046   0.5288   0.1011   0.9701   0
1253.106   0.4285   0.0971   0.9702   0
1253.165   0.5838   0.1070   0.9703   0
1253.225   0.6451   0.1113   0.9704   0
1253.285   0.6516   0.1247   0.9705   0
1253.345   0.5114   0.1103   0.9706   0
1253.405   0.5925   0.1093   0.9707   0
1253.464   0.7682   0.1117   0.9708   0
1253.524   0.5853   0.1104   0.9709   0
1253.584   0.8034   0.1358   0.9710   0
1253.644   0.6010   0.1164   0.9711   0
1253.704   0.5844   0.1076   0.9712   0
1253.764   0.7043   0.1070   0.9713   0
1253.823   0.4860   0.0999   0.9714   0
1253.883   0.7002   0.1258   0.9715   0
1253.943   0.6853   0.1224   0.9715   0
1254.003   0.8122   0.1208   0.9716   0
1254.063   0.7884   0.1144   0.9717   0
1254.123   0.6723   0.1208   0.9718   0
1254.182   0.7643   0.1336   0.9719   0
1254.242   1.0644   0.1372   0.9720   0
1254.302   0.7835   0.1216   0.9721   0
1254.362   1.0716   0.1248   0.9722   0
1254.422   0.6274   0.1123   0.9723   0
1254.481   0.9034   0.1441   0.9724   0
1254.541   0.9364   0.1264   0.9724   0
1254.601   0.8877   0.1303   0.9725   0
1254.661   0.8882   0.1167   0.9726   0
1254.721   0.6886   0.1232   0.9727   0
1254.781   0.8636   0.1379   0.9728   0
1254.840   0.6705   0.1147   0.9729   0
1254.900   0.5063   0.1091   0.9730   0
1254.960   0.7464   0.1184   0.9730   0
1255.020   0.8209   0.1224   0.9731   0
1255.080   0.9498   0.1528   0.9732   0
1255.140   1.0578   0.1364   0.9733   0
1255.199   1.1790   0.1422   0.9734   0
1255.259   0.8798   0.1185   0.9735   0
1255.319   0.7277   0.1173   0.9735   0
1255.379   0.9171   0.1491   0.9736   0
1255.439   0.5429   0.1146   0.9737   0
1255.498   0.8814   0.1288   0.9738   0
1255.558   0.6988   0.1089   0.9739   0
1255.618   0.5792   0.1102   0.9739   0
1255.678   0.6728   0.1204   0.9740   0
1255.738   0.6102   0.1125   0.9741   0
1255.797   0.5593   0.1059   0.9742   0
1255.857   0.3915   0.0882   0.9743   0
1255.917   0.6528   0.1095   0.9743   0
1255.977   0.4384   0.1100   0.9744   0
1256.037   0.4206   0.0893   0.9745   0
1256.097   0.4242   0.0905   0.9746   0
1256.156   0.2975   0.0756   0.9747   0
1256.216   0.3138   0.0869   0.9747   0
1256.276   0.3508   0.1049   0.9748   0
1256.336   0.3735   0.0896   0.9749   0
1256.396   0.5353   0.1079   0.9750   0
1256.456   0.3525   0.0898   0.9750   0
1256.515   0.4975   0.1049   0.9751   0
1256.575   0.4159   0.1015   0.9752   0
1256.635   0.6656   0.1121   0.9753   0
1256.695   0.6608   0.1157   0.9753   0
1256.755   0.8350   0.1111   0.9754   0
1256.814   0.8255   0.1217   0.9755   0
1256.874   0.5769   0.1258   0.9756   0
1256.934   0.6921   0.1148   0.9756   0
1256.994   0.7585   0.1280   0.9757   0
1257.054   0.8973   0.1239   0.9758   0
1257.114   0.8353   0.1280   0.9758   0
1257.173   0.7236   0.1316   0.9759   0
1257.233   0.9697   0.1289   0.9760   0
1257.293   0.8312   0.1225   0.9761   0
1257.353   0.7856   0.1177   0.9761   0
1257.413   0.6100   0.1132   0.9762   0
1257.472   0.8065   0.1459   0.9763   0
1257.532   0.7371   0.1245   0.9763   0
1257.592   0.9348   0.1268   0.9764   0
1257.652   1.0319   0.1253   0.9765   0
1257.712   0.7014   0.1140   0.9765   0
1257.772   0.8944   0.1461   0.9766   0
1257.831   0.8533   0.1248   0.9767   0
1257.891   0.7170   0.1194   0.9767   0
1257.951   0.8687   0.1182   0.9768   0
1258.011   0.8473   0.1257   0.9769   0
1258.071   0.9395   0.1460   0.9769   0
1258.130   0.8640   0.1231   0.9770   0
1258.190   1.1394   0.1398   0.9771   0
1258.250   0.9528   0.1211   0.9771   0
1258.310   0.9731   0.1356   0.9772   0
1258.370   1.2341   0.1517   0.9773   0
1258.430   1.1626   0.1406   0.9773   0
1258.489   1.1620   0.1412   0.9774   0
1258.549   1.0506   0.1235   0.9775   0
1258.609   0.7882   0.1224   0.9775   0
1258.669   0.8637   0.1408   0.9776   0
1258.729   0.8759   0.1293   0.9777   0
1258.788   0.8702   0.1270   0.9777   0
1258.848   0.8435   0.1154   0.9778   0
1258.908   0.6987   0.1109   0.9779   0
1258.968   0.9059   0.1438   0.9779   0
1259.028   0.7889   0.1229   0.9780   0
1259.088   0.8332   0.1254   0.9780   0
1259.147   0.7615   0.1095   0.9781   0
1259.207   0.6257   0.1146   0.9782   0
1259.267   0.6945   0.1244   0.9782   0
1259.327   0.8192   0.1179   0.9783   0
1259.387   0.5809   0.1063   0.9783   0
1259.447   0.3440   0.0861   0.9784   0
1259.506   0.3028   0.0865   0.9785   0
1259.566   0.4545   0.1083   0.9785   0
1259.626   0.4527   0.1015   0.9786   0
1259.686   0.3799   0.0945   0.9786   0
1259.746   0.6267   0.1072   0.9787   0
1259.805   0.4392   0.0964   0.9788   0
1259.865   0.3798   0.1052   0.9788   0
1259.925   0.2475   0.0795   0.9789   0
1259.985   0.4003   0.0954   0.9789   0
1260.045   0.2319   0.0742   0.9790   0
1260.104   0.1625   0.0671   0.9791   0
1260.164   0.1384   0.0712   0.9791   0
1260.224   0.1020   0.0624   0.9792   0
1260.284   0.1496   0.0610   0.9792   0
1260.344   0.0879   0.0561   0.9793   0
1260.404   0.0356   0.0460   0.9793   0
1260.464   0.1743   0.0735   0.9794   0
1260.523   0.0862   0.0559   0.9795   0
1260.583   0.1005   0.0595   0.9795   0
1260.643   0.1547   0.0624   0.9796   0
1260.703   0.1149   0.0643   0.9796   0
1260.763   0.1953   0.0809   0.9797   0
1260.822   0.2248   0.0743   0.9797   0
1260.882   0.2192   0.0768   0.9798   0
1260.942   0.2996   0.0783   0.9798   0
1261.002   0.6456   0.1104   0.9799   0
1261.062   0.4667   0.1122   0.9800   0
1261.121   0.3776   0.0975   0.9800   0
1261.181   0.4339   0.0978   0.9801   0
1261.241   0.3941   0.1008   0.9801   0
1261.301   0.4028   0.0941   0.9802   0
1261.361   0.4117   0.1120   0.9802   0
1261.421   0.5569   0.1008   0.9803   0
1261.480   0.3546   0.0941   0.9803   0
1261.540   0.4227   0.0858   0.9804   0
1261.600   0.3534   0.0940   0.9804   0
1261.660   0.3544   0.0965   0.9805   0
1261.720   0.2380   0.0753   0.9805   0
1261.780   0.2036   0.0698   0.9806   0
1261.839   0.1577   0.0666   0.9806   0
1261.899   0.1373   0.0657   0.9807   0
1261.959   0.2127   0.0768   0.9807   0
1262.019   0.1273   0.0640   0.9808   0
1262.079   0.0865   0.0557   0.9808   0
1262.138   0.0515   0.0446   0.9809   0
1262.198   0.0838   0.0557   0.9809   0
1262.258   0.1189   0.0671   0.9810   0
1262.318   0.0572   0.0500   0.9810   0
1262.378   0.0207   0.0417   0.9811   0
1262.438   0.0010   0.0335   0.9811   0
1262.497   0.0258   0.0437   0.9812   0
1262.557   -0.0064   0.0369   0.9812   0
1262.617   0.0118   0.0391   0.9813   0
1262.677   0.0022   0.0365   0.9813   0
1262.737   0.0145   0.0375   0.9814   0
1262.796   0.0588   0.0540   0.9814   0
1262.856   0.0323   0.0499   0.9815   0
1262.916   0.0712   0.0520   0.9815   0
1262.976   0.1329   0.0655   0.9816   0
1263.036   0.0840   0.0561   0.9816   0
1263.096   0.1446   0.0684   0.9817   0
1263.155   0.2422   0.0855   0.9817   0
1263.215   0.2684   0.0817   0.9818   0
1263.275   0.4928   0.0981   0.9818   0
1263.335   0.5256   0.0962   0.9819   0
1263.395   0.7038   0.1131   0.9819   0
1263.454   0.5507   0.1116   0.9820   0
1263.514   0.6719   0.1131   0.9820   0
1263.574   0.7578   0.1215   0.9820   0
1263.634   0.7334   0.1075   0.9821   0
1263.694   1.0313   0.1324   0.9821   0
1263.754   0.8034   0.1362   0.9822   1
1263.813   0.7845   0.1206   0.9822   1
1263.873   0.9816   0.1362   0.9823   1
1263.933   1.0304   0.1229   0.9823   1
1263.993   0.9953   0.1325   0.9824   1
1264.053   0.8703   0.1435   0.9824   1
1264.112   0.8298   0.1349   0.9825   1
1264.172   1.1905   0.1414   0.9825   1
1264.232   0.6468   0.1090   0.9825   1
1264.292   0.6712   0.1175   0.9826   1
1264.352   1.2632   0.1575   0.9826   1
1264.412   0.9505   0.1304   0.9827   1
1264.471   0.8489   0.1210   0.9827   1
1264.531   1.0514   0.1230   0.9828   1
1264.591   0.9082   0.1297   0.9828   1
1264.651   1.0101   0.1382   0.9828   1
1264.711   0.8239   0.1259   0.9829   1
1264.771   1.0867   0.1386   0.9829   1
1264.830   0.8265   0.1170   0.9830   1
1264.890   0.6618   0.1169   0.9830   1
1264.950   0.8361   0.1352   0.9831   1
1265.010   0.9601   0.1307   0.9831   1
1265.070   0.9659   0.1276   0.9831   1
1265.129   0.9979   0.1221   0.9832   1
1265.189   1.0254   0.1360   0.9832   1
1265.249   0.9681   0.1416   0.9833   1
1265.309   1.0330   0.1368   0.9833   1
1265.369   1.0468   0.1383   0.9834   1
1265.428   0.9755   0.1221   0.9834   1
1265.488   0.6537   0.1206   0.9834   1
1265.548   1.2077   0.1606   0.9835   1
1265.608   0.9081   0.1308   0.9835   1
1265.668   1.0665   0.1369   0.9836   1
1265.728   1.0049   0.1263   0.9836   1
1265.787   0.8279   0.1230   0.9836   1
1265.847   1.3687   0.1606   0.9837   1
1265.907   1.0626   0.1348   0.9837   1
1265.967   0.8491   0.1294   0.9838   1
1266.027   1.2008   0.1304   0.9838   1
1266.087   0.8882   0.1257   0.9838   1
1266.146   0.9739   0.1441   0.9839   1
1266.206   0.9512   0.1312   0.9839   1
1266.266   0.8020   0.1375   0.9839   1
1266.326   1.1907   0.1277   0.9840   1
1266.386   0.8159   0.1250   0.9840   1
1266.445   1.1955   0.1540   0.9841   1
1266.505   1.0128   0.1346   0.9841   1
1266.565   0.8627   0.1280   0.9841   1
1266.625   1.0802   0.1243   0.9842   1
1266.685   0.7729   0.1259   0.9842   1
1266.745   0.7319   0.1282   0.9843   1
1266.804   0.7490   0.1274   0.9843   1
1266.864   0.6357   0.1217   0.9843   1
1266.924   0.7622   0.1100   0.9844   1
1266.984   0.6258   0.1150   0.9844   1
1267.044   0.8278   0.1353   0.9844   1
1267.104   0.7117   0.1170   0.9845   1
1267.163   0.5991   0.1159   0.9845   1
1267.223   0.9003   0.1140   0.9846   1
1267.283   0.7023   0.1152   0.9846   1
1267.343   0.8755   0.1372   0.9846   1
1267.403   0.8043   0.1195   0.9847   1
1267.462   0.7467   0.1212   0.9847   1
1267.522   0.7012   0.1128   0.9847   1
1267.582   1.0942   0.1383   0.9848   1
1267.642   1.0288   0.1532   0.9848   1
1267.702   0.9517   0.1323   0.9848   1
1267.761   0.8482   0.1235   0.9849   1
1267.821   0.9831   0.1240   0.9849   1
1267.881   0.9131   0.1235   0.9849   1
1267.941   0.9986   0.1473   0.9850   1
1268.001   0.3965   0.1106   0.9850   1
1268.061   0.9659   0.1299   0.9851   1
1268.120   0.9189   0.1214   0.9851   1
1268.180   0.8522   0.1282   0.9851   1
1268.240   0.7854   0.1316   0.9852   1
1268.300   0.9441   0.1313   0.9852   1
1268.360   0.7930   0.1227   0.9852   1
1268.420   0.9699   0.1232   0.9853   1
1268.479   0.8877   0.1340   0.9853   1
1268.539   0.7625   0.1424   0.9853   1
1268.599   1.0548   0.1419   0.9854   1
1268.659   0.5301   0.1271   0.9854   1
1268.719   0.9379   0.1286   0.9854   1
1268.778   0.7524   0.1199   0.9855   1
1268.838   0.8242   0.1380   0.9855   1
1268.898   1.2862   0.1465   0.9855   1
1268.958   0.9530   0.1306   0.9856   1
1269.018   0.7498   0.1179   0.9856   1
1269.078   0.9501   0.1331   0.9856   1
1269.137   1.0301   0.1514   0.9857   1
1269.197   0.9146   0.1299   0.9857   1
1269.257   0.6767   0.1223   0.9857   1
1269.317   0.8100   0.1207   0.9858   1
1269.377   0.7243   0.1236   0.9858   1
1269.436   0.9848   0.1415   0.9858   1
1269.496   0.7872   0.1344   0.9859   1
1269.556   0.9089   0.1398   0.9859   1
1269.616   1.0710   0.1317   0.9859   1
1269.676   0.8062   0.1299   0.9860   1
1269.736   0.9116   0.1355   0.9860   1
1269.795   1.0794   0.1386   0.9860   1
1269.855   1.0527   0.1375   0.9860   1
1269.915   0.7055   0.1085   0.9861   1
1269.975   1.0006   0.1289   0.9861   1
1270.035   0.9174   0.1372   0.9861   1
1270.094   1.0743   0.1396   0.9862   1
1270.154   1.0094   0.1315   0.9862   1
1270.214   0.9018   0.1164   0.9862   1
1270.274   0.7928   0.1206   0.9863   1
1270.334   0.7963   0.1415   0.9863   1
1270.394   0.6975   0.1186   0.9863   1
1270.453   0.7566   0.1225   0.9864   1
1270.513   0.7666   0.1182   0.9864   1
1270.573   0.8137   0.1261   0.9864   1
1270.633   0.6832   0.1306   0.9864   1
1270.693   0.9066   0.1289   0.9865   1
1270.752   0.7573   0.1310   0.9865   1
1270.812   1.3043   0.1460   0.9865   1
1270.872   0.9565   0.1539   0.9866   1
1270.932   1.1312   0.1710   0.9866   1
1270.992   0.8273   0.1416   0.9866   1
1271.052   1.1422   0.1657   0.9867   1
1271.111   0.9232   0.1442   0.9867   1
1271.171   0.6847   0.1331   0.9867   1
1271.231   0.7496   0.1536   0.9867   1
1271.291   0.7068   0.1317   0.9868   1
1271.351   0.6774   0.1310   0.9868   1
1271.411   0.8492   0.1293   0.9868   1
1271.470   1.1229   0.1519   0.9869   1
1271.530   0.4680   0.1488   0.9869   1
1271.590   0.6063   0.1233   0.9869   1
1271.650   0.8164   0.1354   0.9869   1
1271.710   0.7920   0.1273   0.9870   1
1271.769   0.7130   0.1294   0.9870   1
1271.829   1.0150   0.1639   0.9870   1
1271.889   1.1775   0.1621   0.9871   1
1271.949   0.9294   0.1425   0.9871   1
1272.009   0.8343   0.1293   0.9871   1
1272.068   0.7439   0.1317   0.9871   1
1272.128   1.0771   0.1659   0.9872   1
1272.188   0.6761   0.1407   0.9872   1
1272.248   1.2256   0.1590   0.9872   1
1272.308   0.9488   0.1341   0.9873   1
1272.368   0.8725   0.1389   0.9873   1
1272.427   0.9761   0.1577   0.9873   1
1272.487   0.8460   0.1422   0.9873   1
1272.547   1.1413   0.1534   0.9874   1
1272.607   1.0632   0.1472   0.9874   1
1272.667   0.9781   0.1486   0.9874   1
1272.727   0.8783   0.1514   0.9874   1
1272.786   0.9408   0.1501   0.9875   1
1272.846   0.9080   0.1488   0.9875   1
1272.906   1.0515   0.1367   0.9875   1
1272.966   0.8442   0.1368   0.9876   1
1273.026   1.0746   0.1667   0.9876   1
1273.085   0.9812   0.1451   0.9876   1
1273.145   0.8265   0.1417   0.9876   1
1273.205   0.9261   0.1325   0.9877   1
1273.265   0.8470   0.1343   0.9877   1
1273.325   0.7072   0.1496   0.9877   1
1273.385   0.9059   0.1385   0.9877   1
1273.444   0.9882   0.1482   0.9878   1
1273.504   0.4896   0.1215   0.9878   1
1273.564   0.8312   0.1756   0.9878   1
1273.624   0.9520   0.1935   0.9878   1
1273.684   0.9485   0.1801   0.9879   1
1273.744   1.1734   0.1878   0.9879   1
1273.803   0.9994   0.1609   0.9879   1
1273.863   0.8681   0.1684   0.9879   1
1273.923   0.8926   0.1942   0.9880   1
1273.983   1.1100   0.1817   0.9880   1
1274.043   0.9896   0.1757   0.9880   1
1274.102   1.0250   0.1637   0.9880   1
1274.162   0.8564   0.1623   0.9881   1
1274.222   0.8190   0.1783   0.9881   1
1274.282   0.7948   0.1639   0.9881   1
1274.342   0.8366   0.1662   0.9881   1
1274.401   0.9630   0.1563   0.9882   1
1274.461   1.0038   0.1862   0.9882   1
1274.521   1.1877   0.1980   0.9882   1
1274.581   0.8951   0.1681   0.9882   1
1274.641   0.6860   0.1602   0.9883   1
1274.701   0.8150   0.1515   0.9883   1
1274.760   0.7124   0.1535   0.9883   1
1274.820   0.7589   0.1751   0.9883   1
1274.880   1.1029   0.1843   0.9884   1
1274.940   1.1082   0.1799   0.9884   1
1275.000   1.0660   0.1686   0.9884   1
1275.060   1.0134   0.1733   0.9884   1
1275.119   0.9319   0.1811   0.9885   1
1275.179   1.0250   0.1712   0.9885   1
1275.239   0.9161   0.1656   0.9885   1
1275.299   0.8289   0.1522   0.9885   1
1275.359   0.8800   0.1655   0.9886   1
1275.418   0.9558   0.1850   0.9886   1
1275.478   1.0766   0.1837   0.9886   1
1275.538   0.8228   0.1611   0.9886   1
1275.598   1.0767   0.1625   0.9886   1
1275.658   0.9079   0.2452   0.9887   1
1275.718   0.9066   0.2682   0.9887   1
1275.777   0.9557   0.2497   0.9887   1
1275.837   1.1058   0.2640   0.9887   1
1275.897   1.3361   0.2634   0.9888   1
1275.957   1.3063   0.2816   0.9888   1
1276.017   0.7803   0.2529   0.9888   1
1276.076   1.1032   0.2628   0.9888   1
1276.136   0.9019   0.2429   0.9888   1
1276.196   0.8127   0.2165   0.9889   1
1276.256   0.9483   0.2475   0.9889   1
1276.316   1.1378   0.2908   0.9889   1
1276.376   1.1929   0.2705   0.9889   1
1276.435   0.8425   0.2364   0.9890   1
1276.495   0.7197   0.2067   0.9890   1
1276.555   1.2366   0.2740   0.9890   1
1276.615   1.1277   0.2892   0.9890   1
1276.675   0.9885   0.2507   0.9890   1
1276.734   1.0375   0.2553   0.9891   1
1276.794   1.2900   0.2576   0.9891   1
1276.854   1.0779   0.2590   0.9891   1
1276.914   0.8845   0.2629   0.9891   1
1276.974   0.8313   0.2345   0.9892   1
1277.034   0.6349   0.2131   0.9892   1
1277.093   1.1729   0.2477   0.9892   1
1277.153   0.7113   0.2212   0.9892   1
1277.213   0.8117   0.2539   0.9892   1
1277.273   1.0782   0.2580   0.9893   1
1277.333   1.0519   0.2555   0.9893   1
1277.392   0.8571   0.2186   0.9893   1
1277.452   1.0029   0.2506   0.9893   1
1277.512   1.1880   0.2932   0.9893   1
1277.572   1.3667   0.2833   0.9894   1
1277.632   0.6779   0.2169   0.9894   1
1277.692   1.3776   0.2630   0.9894   1
1277.751   0.7909   0.2288   0.9894   1
1277.811   0.9095   0.2639   0.9895   1
1277.871   0.5590   0.2029   0.9895   1
1277.931   0.5571   0.2030   0.9895   1
1277.991   0.5947   0.1921   0.9895   1
1278.051   0.9606   0.2462   0.9895   1
1278.110   0.8005   0.2520   0.9896   1
1278.170   0.8936   0.2395   0.9896   1
1278.230   0.9646   0.2463   0.9896   1
1278.290   1.1993   0.2481   0.9896   1
1278.350   0.9624   0.2458   0.9896   1
1278.409   1.0394   0.2773   0.9897   1
1278.469   1.0093   0.2503   0.9897   1
1278.529   0.9594   0.2454   0.9897   1
1278.589   1.0694   0.2369   0.9897   1
1278.649   0.5711   0.2039   0.9897   1
1278.708   1.0937   0.2827   0.9898   1
1278.768   0.5220   0.1980   0.9898   1
1278.828   1.0078   0.2498   0.9898   1
1278.888   1.1101   0.2401   0.9898   1
1278.948   0.7168   0.2198   0.9898   1
1279.008   0.7463   0.2442   0.9899   1
1279.068   1.1047   0.2585   0.9899   1
1279.127   0.8139   0.2300   0.9899   1
1279.187   0.1224   0.1297   0.9899   1
1279.247   0.0000   0.1171   0.9899   1
1279.307   0.0000   0.1283   0.9900   1
1279.367   0.0000   0.1172   0.9900   1
1279.426   0.0000   0.1173   0.9900   1
1279.486   0.0000   0.1087   0.9900   1
1279.546   0.0000   0.1175   0.9900   1
1279.606   0.0000   0.1287   0.9900   1
1279.666   0.0000   0.1176   0.9901   1
1279.725   0.0000   0.1177   0.9901   1
1279.785   0.0000   0.1090   0.9901   1
1279.845   0.0000   0.1179   0.9901   1
1279.905   0.0000   0.1292   0.9901   1
1279.965   0.0000   0.1180   0.9902   1
1280.025   0.0000   0.1181   0.9902   1
1280.084   0.0000   0.1095   0.9902   1
1280.144   0.0000   0.1184   0.9902   1
1280.204   0.0000   0.1297   0.9902   1
1280.264   0.0000   0.1185   0.9903   1
1280.324   0.0000   0.1186   0.9903   1
1280.384   0.0000   0.1099   0.9903   1
1280.443   0.0000   0.1189   0.9903   1
1280.503   0.0000   0.1303   0.9903   1
1280.563   0.0000   0.1190   0.9903   1
1280.623   0.0000   0.1192   0.9904   1
1280.683   0.0000   0.1104   0.9904   1
1280.742   0.0000   0.1194   0.9904   1
1280.802   0.0000   0.1309   0.9904   1
1280.862   0.0000   0.1196   0.9904   1
1280.922   0.0000   0.1197   0.9905   1
1280.982   0.0000   0.1109   0.9905   1
1281.042   0.0000   0.1200   0.9905   1
1281.101   0.0000   0.1315   0.9905   1
1281.161   0.0000   0.1202   0.9905   1
1281.221   0.0000   0.1203   0.9905   1
1281.281   0.0000   0.1115   0.9906   1
1281.341   0.0000   0.1206   0.9906   1
1281.400   0.0000   0.1322   0.9906   1
1281.460   0.0000   0.1208   0.9906   1
1281.520   0.0000   0.1209   0.9906   1
1281.580   0.0000   0.1121   0.9906   1
1281.640   0.0000   0.1212   0.9907   1
1281.700   0.0000   0.1329   0.9907   1
1281.759   0.0000   0.1214   0.9907   1
1281.819   0.0000   0.1216   0.9907   1
1281.879   0.0000   0.1127   0.9907   1
1281.939   0.0000   0.1219   0.9907   1
1281.999   0.0000   0.1336   0.9908   1
1282.058   0.0000   0.1221   0.9908   1
1282.118   0.0000   0.1223   0.9908   1
1282.178   0.0000   0.1133   0.9908   1
1282.238   0.0000   0.1226   0.9908   1
1282.298   0.0000   0.1344   0.9909   1
1282.358   0.0000   0.1228   0.9909   1
1282.417   0.0000   0.1230   0.9909   1
1282.477   0.0000   0.1140   0.9909   1
1282.537   0.0000   0.1233   0.9909   1
1282.597   0.0000   0.1352   0.9909   1
1282.657   0.0000   0.1236   0.9910   1
1282.716   0.0000   0.1237   0.9910   1
1282.776   0.0000   0.1147   0.9910   1
1282.836   0.0000   0.1240   0.9910   1
1282.896   0.0000   0.1360   0.9910   1
1282.956   0.0000   0.1243   0.9910   1
1283.016   0.0000   0.1245   0.9910   1
1283.075   0.0000   0.1154   0.9911   1
1283.135   0.0000   0.1248   0.9911   1
1283.195   0.0000   0.1369   0.9911   1
1283.255   0.0000   0.1251   0.9911   1
1283.315   0.0000   0.1252   0.9911   1
1283.375   0.0000   0.1161   0.9911   1
1283.434   0.0000   0.1256   0.9912   1
1283.494   0.0000   0.1377   0.9912   1
1283.554   0.0000   0.1259   0.9912   1
1283.614   0.0000   0.1261   0.9912   1
1283.674   0.0000   0.1169   0.9912   1
1283.733   0.0000   0.1264   0.9912   1
1283.793   0.0000   0.1386   0.9913   1
1283.853   0.0000   0.1267   0.9913   1
1283.913   0.0000   0.1269   0.9913   1
1283.973   0.0000   0.1176   0.9913   1
1284.032   0.0000   0.1272   0.9913   1
1284.092   0.0000   0.1396   0.9913   1
1284.152   0.0000   0.1276   0.9913   1
1284.212   0.0000   0.1277   0.9914   1
1284.272   0.0000   0.1184   0.9914   1
1284.332   0.0000   0.1281   0.9914   1
1284.391   0.0000   0.1405   0.9914   1
1284.451   0.0000   0.1284   0.9914   1
1284.511   0.0000   0.1286   0.9914   1
1284.571   0.0000   0.1192   0.9915   1
1284.631   0.0000   0.1290   0.9915   1
1284.691   0.0000   0.1415   0.9915   1
1284.750   0.0000   0.1293   0.9915   1
1284.810   0.0000   0.1295   0.9915   1
1284.870   0.0000   0.1201   0.9915   1
1284.930   0.0000   0.1299   0.9915   1
1284.990   0.0000   0.1425   0.9916   1
1285.049   0.0000   0.1302   0.9916   1
1285.109   0.0000   0.1304   0.9916   1
1285.169   0.0000   0.1209   0.9916   1
1285.229   0.0000   0.1308   0.9916   1
1285.289   0.0000   0.1435   0.9916   1
1285.349   0.0000   0.1312   0.9916   1
1285.408   0.0000   0.1313   0.9917   1
1285.468   0.0000   0.1218   0.9917   1
1285.528   0.0000   0.1317   0.9917   1
1285.588   0.0000   0.1445   0.9917   1
1285.648   0.0000   0.1321   0.9917   1
1285.708   0.0000   0.1323   0.9917   1
1285.767   0.0000   0.1227   0.9917   1
1285.827   0.0000   0.1327   0.9918   1
1285.887   0.0000   0.1456   0.9918   1
1285.947   0.0000   0.1331   0.9918   1
1286.007   0.0000   0.1332   0.9918   1
1286.066   0.0000   0.1235   0.9918   1
1286.126   0.0000   0.1337   0.9918   1
1286.186   0.0000   0.1466   0.9918   1
1286.246   0.0000   0.1340   0.9919   1
1286.306   0.0000   0.1342   0.9919   1
1286.365   0.0000   0.1244   0.9919   1
1286.425   0.0000   0.1346   0.9919   1
1286.485   0.0000   0.1477   0.9919   1
1286.545   0.0000   0.1350   0.9919   1
1286.605   0.0000   0.1352   0.9919   1
1286.665   0.0000   0.1254   0.9920   1
1286.724   0.0000   0.1356   0.9920   1
1286.784   0.0000   0.1488   0.9920   1
1286.844   0.0000   0.1360   0.9920   1
1286.904   0.0000   0.1362   0.9920   1
1286.964   0.0000   0.1263   0.9920   1
1287.024   0.0000   0.1366   0.9920   1
1287.083   0.0000   0.1499   0.9921   1
1287.143   0.0000   0.1370   0.9921   1
1287.203   0.0000   0.1372   0.9921   1
1287.263   0.0000   0.1272   0.9921   1
1287.323   0.0000   0.1376   0.9921   1
1287.382   0.0000   0.1510   0.9921   1
1287.442   0.0000   0.1380   0.9921   1
1287.502   0.0000   0.1382   0.9922   1
1287.562   0.6797   0.2224   0.9922   1
1287.622   0.7303   0.2464   0.9922   1
1287.682   0.6553   0.2607   0.9922   1
1287.741   1.2200   0.2977   0.9922   1
1287.801   1.0369   0.2798   0.9922   1
1287.861   1.2571   0.2790   0.9922   1
1287.921   1.2225   0.2982   0.9922   1
1287.981   1.4688   0.3516   0.9923   1
1288.041   1.1004   0.2867   0.9923   1
1288.100   1.1658   0.2928   0.9923   1
1288.160   0.6823   0.2236   0.9923   1
1288.220   0.9837   0.2748   0.9923   1
1288.280   1.1085   0.3149   0.9923   1
1288.340   0.6759   0.2410   0.9923   1
1288.399   0.7383   0.2484   0.9923   1
1288.459   1.0044   0.2567   0.9924   1
1288.519   0.5522   0.2264   0.9924   1
1288.579   0.7369   0.2726   0.9924   1
1288.639   0.8010   0.2559   0.9924   1
1288.698   0.8030   0.2561   0.9924   1
1288.758   0.4734   0.2005   0.9924   1
1288.818   0.6783   0.2422   0.9924   1
1288.878   1.0399   0.3086   0.9924   1
1288.938   1.2405   0.3013   0.9925   1
1288.998   1.0520   0.2832   0.9925   1
1289.057   1.4894   0.3004   0.9925   1
1289.117   0.8022   0.2571   0.9925   1
1289.177   0.5150   0.2443   0.9925   1
1289.237   0.6156   0.2356   0.9925   1
1289.297   0.8668   0.2645   0.9925   1
1289.357   0.9044   0.2487   0.9925   1
1289.416   0.8712   0.2652   0.9926   1
1289.476   0.8966   0.2936   0.9926   1
1289.536   0.6196   0.2365   0.9926   1
1289.596   1.1880   0.2975   0.9926   1
1289.656   1.0708   0.2650   0.9926   1
1289.715   0.9372   0.2726   0.9926   1
1289.775   0.7485   0.2760   0.9926   1
1289.835   0.8123   0.2592   0.9926   1
1289.895   1.0023   0.2796   0.9927   1
1289.955   1.1304   0.2708   0.9927   1
1290.015   0.9421   0.2733   0.9927   1
1290.074   1.3610   0.3444   0.9927   1
1290.134   0.7555   0.2528   0.9927   1
1290.194   0.8197   0.2601   0.9927   1
1290.254   0.9263   0.2338   0.9927   1
1290.314   0.9256   0.1818   0.9927   1
1290.373   0.9903   0.2126   0.9928   1
1290.433   1.0189   0.2010   0.9928   1
1290.493   0.9481   0.1940   0.9928   1
1290.553   0.8855   0.1681   0.9928   1
1290.613   1.1733   0.2100   0.9928   1
1290.673   0.8151   0.2002   0.9928   1
1290.732   0.6350   0.1721   0.9928   1
1290.792   1.0777   0.1947   0.9928   1
1290.852   1.1133   0.1892   0.9928   1
1290.912   1.2073   0.2040   0.9929   1
1290.972   1.1403   0.2282   0.9929   1
1291.031   0.7871   0.1830   0.9929   1
1291.091   1.1650   0.2131   0.9929   1
1291.151   0.8713   0.1732   0.9929   1
1291.211   0.7587   0.1781   0.9929   1
1291.271   1.2068   0.2263   0.9929   1
1291.331   0.9531   0.1934   0.9929   1
1291.390   0.6092   0.1593   0.9929   1
1291.450   0.8666   0.1718   0.9930   1
1291.510   1.0074   0.2005   0.9930   1
1291.570   0.8908   0.2050   0.9930   1
1291.630   0.7838   0.1862   0.9930   1
1291.689   0.9462   0.1938   0.9930   1
1291.749   0.8568   0.1702   0.9930   1
1291.809   0.9786   0.1869   0.9930   1
1291.869   0.6113   0.1887   0.9930   1
1291.929   1.1667   0.2060   0.9930   1
1291.989   0.7722   0.1686   0.9931   1
1292.048   0.6902   0.1558   0.9931   1
1292.108   0.9085   0.1874   0.9931   1
1292.168   1.0457   0.2130   0.9931   1
1292.228   0.9036   0.1877   0.9931   1
1292.288   0.9790   0.1952   0.9931   1
1292.348   1.1061   0.1868   0.9931   1
1292.407   1.0385   0.1795   0.9931   1
1292.467   0.4767   0.1405   0.9931   1
1292.527   0.5847   0.1287   0.9932   1
1292.587   1.1428   0.1690   0.9932   1
1292.647   0.8707   0.1449   0.9932   1
1292.706   0.7438   0.1466   0.9932   1
1292.766   1.0753   0.1709   0.9932   1
1292.826   0.9129   0.1558   0.9932   1
1292.886   0.7129   0.1409   0.9932   1
1292.946   0.9391   0.1432   0.9932   1
1293.005   1.2497   0.1757   0.9932   1
1293.065   0.6521   0.1556   0.9933   1
1293.125   0.9977   0.1568   0.9933   1
1293.185   0.6545   0.1359   0.9933   1
1293.245   0.8646   0.1431   0.9933   1
1293.305   0.8955   0.1463   0.9933   1
1293.365   0.8228   0.1564   0.9933   1
1293.424   0.8663   0.1507   0.9933   1
1293.484   0.8903   0.1484   0.9933   1
1293.544   0.8819   0.1396   0.9933   1
1293.604   0.7993   0.1402   0.9934   1
1293.664   0.7327   0.1499   0.9934   1
1293.723   0.6258   0.1345   0.9934   1
1293.783   0.8558   0.1466   0.9934   1
1293.843   0.8820   0.1420   0.9934   1
1293.903   0.6699   0.1351   0.9934   1
1293.963   1.0922   0.1836   0.9934   1
1294.022   0.7942   0.1447   0.9934   1
1294.082   0.8562   0.1453   0.9934   1
1294.142   0.7632   0.1388   0.9934   1
1294.202   0.7898   0.1514   0.9935   1
1294.262   0.4870   0.1376   0.9935   1
1294.322   0.7375   0.1417   0.9935   1
1294.381   0.8151   0.1536   0.9935   1
1294.441   0.7963   0.1377   0.9935   1
1294.501   0.8408   0.1500   0.9935   1
1294.561   0.8568   0.1750   0.9935   1
1294.621   0.8709   0.1534   0.9935   1
1294.681   0.8946   0.1594   0.9935   1
1294.740   1.0744   0.1537   0.9935   1
1294.800   0.8176   0.1487   0.9936   1
1294.860   0.9433   0.1790   0.9936   1
1294.920   0.8758   0.1525   0.9936   1
1294.980   0.8349   0.1544   0.9936   1
1295.039   0.9550   0.1524   0.9936   1
1295.099   1.1028   0.1695   0.9936   1
1295.159   0.8116   0.1704   0.9936   1
1295.219   1.0306   0.1651   0.9936   1
1295.279   0.9976   0.1641   0.9936   1
1295.339   0.7223   0.1345   0.9936   1
1295.398   0.8713   0.1609   0.9937   1
1295.458   0.7524   0.1623   0.9937   1
1295.518   1.0277   0.1643   0.9937   1
1295.578   0.9889   0.1614   0.9937   1
1295.638   0.8890   0.1423   0.9937   1
1295.697   0.8866   0.1507   0.9937   1
1295.757   0.8081   0.1677   0.9937   1
1295.817   0.8810   0.1659   0.9937   1
1295.877   0.5889   0.1482   0.9937   1
1295.937   0.6792   0.1260   0.9937   1
1295.997   0.7383   0.1331   0.9937   1
1296.056   0.8681   0.1525   0.9938   1
1296.116   0.8249   0.1328   0.9938   1
1296.176   0.7504   0.1344   0.9938   1
1296.236   0.7060   0.1205   0.9938   1
1296.296   0.5895   0.1324   0.9938   1
1296.355   0.5884   0.1362   0.9938   1
1296.415   0.5863   0.1349   0.9938   1
1296.475   0.6683   0.1283   0.9938   1
1296.535   0.5660   0.1173   0.9938   1
1296.595   0.5407   0.1271   0.9938   1
1296.655   0.4162   0.1238   0.9938   1
1296.714   0.8803   0.1437   0.9939   1
